# Acquired on 14/06/2024 14:06:00 
# SPIDER: CNT0771454D-RODATO_10000_CICLI-10mm_FIT_TEST02
# STATIC MEASUREMENT

  # x_forw [mm]    f_forw [N]    kms_forw [N/mm]
      -10.98389      28.54692            2.59898
      -10.73975      27.55276            2.56549
      -10.48584      26.55580            2.53254
      -10.23926      25.62164            2.50229
       -9.98535      24.69276            2.47290
       -9.73877      23.82087            2.44598
       -9.48730      22.96051            2.42013
       -9.24072      22.14339            2.39628
       -8.98682      21.32772            2.37322
       -8.74023      20.55900            2.35223
       -8.48877      19.79726            2.33217
       -8.23975      19.06354            2.31361
       -7.98584      18.33514            2.29596
       -7.73926      17.64547            2.27999
       -7.48535      16.95224            2.26472
       -7.23877      16.29426            2.25097
       -6.98486      15.63125            2.23787
       -6.73828      15.00038            2.22614
       -6.48682      14.36919            2.21514
       -6.24023      13.76122            2.20524
       -5.98633      13.14558            2.19593
       -5.73975      12.55691            2.18771
       -5.48584      11.95940            2.18005
       -5.24170      11.39236            2.17341
       -4.98779      10.80969            2.16723
       -4.73877      10.24449            2.16185
       -4.48731       9.67939            2.15706
       -4.24072       9.13015            2.15297
       -3.98926       8.57445            2.14938
       -3.74023       8.02797            2.14638
       -3.48877       7.47950            2.14388
       -3.24219       6.94449            2.14192
       -2.98828       6.39604            2.14037
       -2.74170       5.86538            2.13932
       -2.48779       5.32057            2.13867
       -2.23877       4.78748            2.13844
       -1.98731       4.25005            2.13860
       -1.74072       3.72361            2.13912
       -1.48926       3.18701            2.14000
       -1.24268       2.66081            2.14119
       -0.98877       2.11869            2.14275
       -0.73975       1.58646            2.14460
       -0.48828       1.04822            2.14676
       -0.24170       0.51945            2.14917
        0.23193      -0.49972            2.15456
        0.48828      -1.05366            2.15789
        0.73730      -1.59361            2.16140
        0.98877      -2.14089            2.16521
        1.23779      -2.68507            2.16924
        1.48926      -3.23703            2.17359
        1.73584      -3.78085            2.17811
        1.98731      -4.33828            2.18299
        2.23633      -4.89332            2.18811
        2.48535      -5.45162            2.19350
        2.73438      -6.01339            2.19918
        2.98340      -6.57887            2.20516
        3.23731      -7.15953            2.21157
        3.48389      -7.72767            2.21812
        3.73535      -8.31164            2.22513
        3.98926      -8.90629            2.23257
        4.23340      -9.48314            2.24008
        4.48975     -10.09455            2.24836
        4.73389     -10.68267            2.25664
        4.99023     -11.30671            2.26577
        5.23438     -11.90768            2.27490
        5.48584     -12.53391            2.28477
        5.73242     -13.15558            2.29494
        5.98633     -13.80413            2.30594
        6.23535     -14.44907            2.31728
        6.48438     -15.10337            2.32919
        6.73340     -15.76766            2.34171
        6.98486     -16.44931            2.35499
        7.23389     -17.13578            2.36882
        7.48535     -17.84131            2.38350
        7.73438     -18.55302            2.39877
        7.98340     -19.27854            2.41483
        8.23486     -20.02611            2.43187
        8.48389     -20.78217            2.44961
        8.73535     -21.56257            2.46843
        8.98438     -22.35322            2.48801
        9.23096     -23.15470            2.50837
        9.48730     -24.00875            2.53062
        9.73145     -24.84307            2.55287
        9.98535     -25.73379            2.57715
       10.23193     -26.62262            2.60192
       10.48096     -27.54548            2.62815
       10.73242     -28.50461            2.65593
       10.98145     -29.48297            2.68480

  # x_back [mm]    f_back [N]    kms_back [N/mm]
      -10.98389      28.28879            2.57548
      -10.73975      27.20122            2.53276
      -10.48340      26.10666            2.49029
      -10.23926      25.10685            2.45202
       -9.98779      24.11803            2.41475
       -9.73877      23.17744            2.37991
       -9.48730      22.26433            2.34675
       -9.23828      21.39425            2.31583
       -8.98682      20.54800            2.28646
       -8.74023      19.74780            2.25941
       -8.48633      18.95252            2.23330
       -8.23975      18.20621            2.20956
       -7.98584      17.46274            2.18671
       -7.73926      16.76335            2.16602
       -7.48535      16.06486            2.14617
       -7.23877      15.40606            2.12827
       -6.98731      14.75258            2.11134
       -6.73828      14.12236            2.09584
       -6.48682      13.50170            2.08141
       -6.24023      12.90724            2.06839
       -5.98633      12.30856            2.05611
       -5.73975      11.73909            2.04523
       -5.48584      11.16392            2.03504
       -5.24170      10.62064            2.02618
       -4.98779      10.06482            2.01789
       -4.73877       9.52791            2.01063
       -4.48731       8.99315            2.00413
       -4.24072       8.47522            1.99853
       -3.98926       7.95288            1.99357
       -3.74023       7.44072            1.98937
       -3.48877       6.92805            1.98581
       -3.23975       6.42420            1.98293
       -2.98828       5.91871            1.98064
       -2.73926       5.42086            1.97895
       -2.48535       4.91553            1.97780
       -2.23877       4.42650            1.97720
       -1.98486       3.92427            1.97710
       -1.73828       3.43742            1.97748
       -1.48926       2.94623            1.97832
       -1.24023       2.45516            1.97960
       -0.98633       1.95425            1.98134
       -0.73975       1.46724            1.98343
       -0.48584       0.96487            1.98599
       -0.24170       0.48070            1.98883
        0.23682      -0.47255            1.99541
        0.48340      -0.96647            1.99933
        0.73486      -1.47243            2.00367
        0.98389      -1.97597            2.00833
        1.23779      -2.49221            2.01343
        1.48682      -3.00157            2.01879
        1.73584      -3.51420            2.02449
        1.98731      -4.03545            2.03061
        2.23633      -4.55548            2.03704
        2.48535      -5.07962            2.04382
        2.73438      -5.60816            2.05098
        2.98340      -6.14141            2.05853
        3.23731      -6.69032            2.06663
        3.48389      -7.22876            2.07491
        3.73779      -7.78910            2.08388
        3.98926      -8.35036            2.09321
        4.23340      -8.90167            2.10273
        4.48975      -9.48782            2.11322
        4.73144     -10.04773            2.12361
        4.98779     -10.64980            2.13517
        5.23193     -11.23159            2.14674
        5.48584     -11.84593            2.15937
        5.73242     -12.45221            2.17224
        5.98633     -13.08712            2.18617
        6.23535     -13.72098            2.20051
        6.48438     -14.36663            2.21558
        6.73340     -15.02487            2.23139
        6.98486     -15.70317            2.24817
        7.23389     -16.38925            2.26562
        7.48535     -17.09753            2.28413
        7.73193     -17.80813            2.30319
        7.98340     -18.55024            2.32360
        8.23730     -19.31861            2.34526
        8.48389     -20.08429            2.36734
        8.73535     -20.88615            2.39099
        8.98682     -21.71057            2.41582
        9.23096     -22.53390            2.44112
        9.48730     -23.42420            2.46900
        9.73145     -24.29816            2.49687
        9.98779     -25.24484            2.52757
       10.23193     -26.17572            2.55824
       10.48096     -27.15636            2.59102
       10.73242     -28.18040            2.62573
       10.97900     -29.21939            2.66139