# Acquired on 27/08/2024 15:53:42 
# SPIDER: CNT0771454A-1_24h_PostRodaggio_2024-08-27
# TRACKING MEASUREMENT

  # pos [mm]    force [N]     time [ms]
     0.48828     -0.05412     249.00000
     0.48828     -0.17561     350.00000
     0.48828     -0.25563     449.00000
     0.48828     -0.25009     549.00000
     0.48828     -0.24685     650.00000
     0.48828     -0.24485     749.00000
     0.48828     -0.24264     849.00000
     0.48828     -0.24085     950.00000
     0.48828     -0.23999    1049.00000
     0.48828     -0.23826    1149.00000
    -0.49072      0.22989    1961.00000
    -0.49072      0.35413    2063.00000
    -0.49072      0.41103    2161.00000
    -0.49072      0.41184    2262.00000
    -0.49072      0.40716    2363.00000
    -0.49072      0.40446    2462.00000
    -0.49072      0.39957    2562.00000
    -0.49072      0.39752    2663.00000
    -0.49072      0.39649    2762.00000
    -0.49072      0.39511    2862.00000
    -0.00488      0.27503    3451.00000
    -0.00488      0.11035    3553.00000
    -0.00488      0.03535    3652.00000
    -0.00488      0.02954    3752.00000
    -0.00488      0.03287    3853.00000
    -0.00488      0.03533    3952.00000
    -0.00488      0.03838    4052.00000
    -0.00488      0.03865    4153.00000
    -0.00488      0.03948    4252.00000
    -0.00488      0.04054    4352.00000
     0.99365     -0.33019    4758.00000
     0.99365     -0.48423    4858.00000
     0.99365     -0.51595    4959.00000
     0.99365     -0.50844    5058.00000
     0.99365     -0.50250    5158.00000
     0.99365     -0.49855    5259.00000
     0.99365     -0.49331    5358.00000
     0.99365     -0.48772    5458.00000
     0.99365     -0.48575    5559.00000
     0.99365     -0.48372    5658.00000
    -0.99365      0.53003    6598.00000
    -0.99365      0.69963    6699.00000
    -0.99365      0.74418    6800.00000
    -0.99365      0.73821    6899.00000
    -0.99365      0.73081    6999.00000
    -0.99365      0.72557    7100.00000
    -0.99365      0.72173    7199.00000
    -0.99365      0.71681    7299.00000
    -0.99365      0.71446    7400.00000
    -0.99365      0.71211    7499.00000
    -0.00488      0.48432    8161.00000
    -0.00488      0.05459    8262.00000
    -0.00488      0.02579    8362.00000
    -0.00488      0.03014    8463.00000
    -0.00488      0.03479    8562.00000
    -0.00488      0.03854    8662.00000
    -0.00488      0.03995    8763.00000
    -0.00488      0.04165    8862.00000
    -0.00488      0.04278    8962.00000
    -0.00488      0.04591    9063.00000
     1.49170     -0.53119    9522.00000
     1.49170     -0.75166    9621.00000
     1.49170     -0.81115    9721.00000
     1.49170     -0.80266    9822.00000
     1.49170     -0.79180    9921.00000
     1.49170     -0.78046   10021.00000
     1.49170     -0.77568   10122.00000
     1.49170     -0.77165   10221.00000
     1.49170     -0.76995   10321.00000
     1.49170     -0.76768   10422.00000
    -1.49414      0.72405   11470.00000
    -1.49414      0.98440   11571.00000
    -1.49414      1.07677   11671.00000
    -1.49414      1.07966   11771.00000
    -1.49414      1.06194   11872.00000
    -1.49414      1.05632   11971.00000
    -1.49414      1.05097   12071.00000
    -1.49414      1.04740   12172.00000
    -1.49414      1.04427   12271.00000
    -1.49414      1.03984   12371.00000
    -0.00488      0.20287   13094.00000
    -0.00488      0.05345   13196.00000
    -0.00488      0.02268   13295.00000
    -0.00488      0.02773   13395.00000
    -0.00488      0.03341   13496.00000
    -0.00488      0.03708   13595.00000
    -0.00488      0.03916   13695.00000
    -0.00488      0.04451   13796.00000
    -0.00488      0.04610   13895.00000
    -0.00488      0.04813   13995.00000
     1.99463     -0.91988   14497.00000
     1.99463     -1.09213   14598.00000
     1.99463     -1.12072   14699.00000
     1.99463     -1.10791   14798.00000
     1.99463     -1.09705   14899.00000
     1.99463     -1.09003   14998.00000
     1.99463     -1.08319   15098.00000
     1.99463     -1.07317   15199.00000
     1.99463     -1.06925   15298.00000
     1.99463     -1.06590   15398.00000
    -1.99463      1.14884   16539.00000
    -1.99463      1.38331   16640.00000
    -1.99463      1.44083   16741.00000
    -1.99463      1.43250   16840.00000
    -1.99463      1.41970   16940.00000
    -1.99463      1.40417   17041.00000
    -1.99463      1.39898   17140.00000
    -1.99463      1.39331   17240.00000
    -1.99463      1.38831   17341.00000
    -1.99463      1.38463   17440.00000
    -0.00488      0.23305   18212.00000
    -0.00488      0.05751   18314.00000
    -0.00488      0.01298   18413.00000
    -0.00488      0.01771   18513.00000
    -0.00488      0.02452   18613.00000
    -0.00488      0.03268   18713.00000
    -0.00488      0.03522   18813.00000
    -0.00488      0.03884   18914.00000
    -0.00488      0.04100   19013.00000
    -0.00488      0.04119   19113.00000
     2.49512     -0.98010   19647.00000
     2.49512     -1.32090   19747.00000
     2.49512     -1.44025   19848.00000
     2.49512     -1.42739   19947.00000
     2.49512     -1.41661   20047.00000
     2.49512     -1.40851   20148.00000
     2.49512     -1.40116   20247.00000
     2.49512     -1.39503   20347.00000
     2.49512     -1.38973   20448.00000
     2.49512     -1.38563   20547.00000
    -2.49268      1.30578   21755.00000
    -2.49268      1.66924   21857.00000
    -2.49268      1.80548   21956.00000
    -2.49268      1.79705   22056.00000
    -2.49268      1.78495   22157.00000
    -2.49268      1.77638   22256.00000
    -2.49268      1.76858   22356.00000
    -2.49268      1.76225   22457.00000
    -2.49268      1.75739   22556.00000
    -2.49268      1.75210   22656.00000
    -0.00488      0.16703   23459.00000
    -0.00488      0.02903   23560.00000
    -0.00488      0.00374   23659.00000
    -0.00488      0.01023   23759.00000
    -0.00488      0.01750   23860.00000
    -0.00488      0.02344   23959.00000
    -0.00488      0.02738   24059.00000
    -0.00488      0.03173   24160.00000
    -0.00488      0.03495   24259.00000
    -0.00488      0.03716   24359.00000
     2.99072     -1.23912   24935.00000
     2.99072     -1.79024   25036.00000
     2.99072     -1.80277   25136.00000
     2.99072     -1.78440   25237.00000
     2.99072     -1.77079   25336.00000
     2.99072     -1.76079   25437.00000
     2.99072     -1.75174   25536.00000
     2.99072     -1.74518   25636.00000
     2.99072     -1.73405   25737.00000
     2.99072     -1.72943   25836.00000
    -2.99316      1.60797   27129.00000
    -2.99316      2.19274   27231.00000
    -2.99316      2.20944   27330.00000
    -2.99316      2.19150   27430.00000
    -2.99316      2.17737   27531.00000
    -2.99316      2.16721   27630.00000
    -2.99316      2.15835   27730.00000
    -2.99316      2.15076   27831.00000
    -2.99316      2.13766   27930.00000
    -2.99316      2.13353   28030.00000
    -0.00488      0.31412   28875.00000
    -0.00488      0.07690   28975.00000
    -0.00488     -0.00974   29077.00000
    -0.00488      0.00091   29176.00000
    -0.00488      0.00944   29277.00000
    -0.00488      0.01431   29376.00000
    -0.00488      0.01922   29476.00000
    -0.00488      0.02374   29577.00000
    -0.00488      0.02641   29676.00000
    -0.00488      0.03168   29776.00000
     3.49365     -1.98550   30388.00000
     3.49365     -2.15913   30489.00000
     3.49365     -2.17475   30589.00000
     3.49365     -2.15349   30690.00000
     3.49365     -2.13833   30789.00000
     3.49365     -2.12706   30889.00000
     3.49365     -2.11826   30990.00000
     3.49365     -2.10324   31089.00000
     3.49365     -2.09759   31189.00000
     3.49365     -2.09151   31290.00000
    -3.49365      2.05886   32656.00000
    -3.49365      2.61559   32757.00000
    -3.49365      2.62480   32857.00000
    -3.49365      2.60484   32958.00000
    -3.49365      2.58895   33057.00000
    -3.49365      2.57674   33157.00000
    -3.49365      2.56569   33258.00000
    -3.49365      2.55651   33357.00000
    -3.49365      2.54591   33458.00000
    -3.49365      2.54027   33557.00000
    -0.00488      0.39917   34414.00000
    -0.00488      0.00296   34515.00000
    -0.00488     -0.01463   34616.00000
    -0.00488     -0.00487   34715.00000
    -0.00488      0.00455   34815.00000
    -0.00488      0.01096   34916.00000
    -0.00488      0.01509   35015.00000
    -0.00488      0.01990   35115.00000
    -0.00488      0.02519   35216.00000
    -0.00488      0.02822   35315.00000
     3.99414     -2.21967   35951.00000
     3.99414     -2.50639   36052.00000
     3.99414     -2.57444   36153.00000
     3.99414     -2.55556   36252.00000
     3.99414     -2.52108   36352.00000
     3.99414     -2.51022   36453.00000
     3.99414     -2.49982   36552.00000
     3.99414     -2.49183   36652.00000
     3.99414     -2.48421   36753.00000
     3.99414     -2.47781   36852.00000
    -3.99414      2.47373   38267.00000
    -3.99414      2.89671   38369.00000
    -3.99414      3.05405   38468.00000
    -3.99414      3.03103   38568.00000
    -3.99414      3.01539   38669.00000
    -3.99414      3.00253   38768.00000
    -3.99414      2.99197   38868.00000
    -3.99414      2.98238   38969.00000
    -3.99414      2.97362   39068.00000
    -3.99414      2.95841   39168.00000
    -0.00488      0.15689   40075.00000
    -0.00488      0.01258   40176.00000
    -0.00488     -0.02206   40276.00000
    -0.00488     -0.01406   40377.00000
    -0.00488     -0.00320   40476.00000
    -0.00488      0.00950   40576.00000
    -0.00488      0.01466   40677.00000
    -0.00488      0.01809   40776.00000
    -0.00488      0.02141   40876.00000
    -0.00488      0.02495   40976.00000
     4.49463     -2.69417   41655.00000
     4.49463     -2.93825   41755.00000
     4.49463     -2.98607   41855.00000
     4.49463     -2.96524   41956.00000
     4.49463     -2.94414   42055.00000
     4.49463     -2.91651   42155.00000
     4.49463     -2.90638   42256.00000
     4.49463     -2.89706   42355.00000
     4.49463     -2.89038   42455.00000
     4.49463     -2.88336   42556.00000
    -4.49463      3.17010   44031.00000
    -4.49463      3.45201   44132.00000
    -4.49463      3.51617   44231.00000
    -4.49463      3.49783   44331.00000
    -4.49463      3.45833   44432.00000
    -4.49463      3.44523   44531.00000
    -4.49463      3.43331   44631.00000
    -4.49463      3.42427   44732.00000
    -4.49463      3.41605   44831.00000
    -4.49463      3.40795   44931.00000
    -0.00488      0.13704   45862.00000
    -0.00488      0.00442   45963.00000
    -0.00488     -0.02314   46063.00000
    -0.00488     -0.01484   46163.00000
    -0.00488     -0.00415   46264.00000
    -0.00488      0.00909   46363.00000
    -0.00488      0.01444   46463.00000
    -0.00488      0.01798   46564.00000
    -0.00488      0.02219   46663.00000
    -0.00488      0.02525   46763.00000
     4.99512     -3.03689   47467.00000
     4.99512     -3.35648   47567.00000
     4.99512     -3.43482   47668.00000
     4.99512     -3.38847   47767.00000
     4.99512     -3.36961   47867.00000
     4.99512     -3.35726   47968.00000
     4.99512     -3.34589   48067.00000
     4.99512     -3.33365   48167.00000
     4.99512     -3.32560   48268.00000
     4.99512     -3.31871   48367.00000
    -4.99268      3.61048   49917.00000
    -4.99268      3.91973   50019.00000
    -4.99268      3.98921   50118.00000
    -4.99268      3.96762   50218.00000
    -4.99268      3.92502   50319.00000
    -4.99268      3.90968   50418.00000
    -4.99268      3.89752   50518.00000
    -4.99268      3.88763   50619.00000
    -4.99268      3.87977   50718.00000
    -4.99268      3.87234   50818.00000
    -0.00488      0.20271   51762.00000
    -0.00488      0.02346   51861.00000
    -0.00488     -0.03124   51961.00000
    -0.00488     -0.02854   52062.00000
    -0.00488     -0.00679   52161.00000
    -0.00488      0.00066   52261.00000
    -0.00488      0.00631   52362.00000
    -0.00488      0.01150   52461.00000
    -0.00488      0.01552   52561.00000
    -0.00488      0.01790   52662.00000
     5.49072     -3.23958   53376.00000
     5.49072     -3.88728   53477.00000
     5.49072     -3.88849   53576.00000
     5.49072     -3.85832   53676.00000
     5.49072     -3.83635   53777.00000
     5.49072     -3.81974   53876.00000
     5.49072     -3.80607   53976.00000
     5.49072     -3.79426   54077.00000
     5.49072     -3.77481   54176.00000
     5.49072     -3.76738   54276.00000
    -5.49316      4.24143   55844.00000
    -5.49316      4.46301   55946.00000
    -5.49316      4.48383   56045.00000
    -5.49316      4.45431   56145.00000
    -5.49316      4.43091   56246.00000
    -5.49316      4.41227   56345.00000
    -5.49316      4.39733   56445.00000
    -5.49316      4.37429   56546.00000
    -5.49316      4.36459   56645.00000
    -5.49316      4.35511   56745.00000
    -0.00488      0.13814   57712.00000
    -0.00488     -0.00496   57813.00000
    -0.00488     -0.03875   57914.00000
    -0.00488     -0.02881   58013.00000
    -0.00488     -0.01733   58113.00000
    -0.00488     -0.00231   58214.00000
    -0.00488      0.00504   58313.00000
    -0.00488      0.00874   58413.00000
    -0.00488      0.01282   58514.00000
    -0.00488      0.01755   58613.00000
     5.99365     -4.16264   59365.00000
     5.99365     -4.37350   59466.00000
     5.99365     -4.38865   59566.00000
     5.99365     -4.35432   59667.00000
     5.99365     -4.32944   59766.00000
     5.99365     -4.30936   59866.00000
     5.99365     -4.29372   59967.00000
     5.99365     -4.26992   60066.00000
     5.99365     -4.26017   60166.00000
     5.99365     -4.25106   60267.00000
    -5.99365      4.38547   61889.00000
    -5.99365      5.01401   61990.00000
    -5.99365      5.01101   62091.00000
    -5.99365      4.97884   62190.00000
    -5.99365      4.95482   62290.00000
    -5.99365      4.93686   62391.00000
    -5.99365      4.92065   62490.00000
    -5.99365      4.90873   62590.00000
    -5.99365      4.88585   62691.00000
    -5.99365      4.87634   62790.00000
    -0.00488      0.16065   63787.00000
    -0.00488      0.00026   63889.00000
    -0.00488     -0.04529   63988.00000
    -0.00488     -0.03756   64088.00000
    -0.00488     -0.01357   64189.00000
    -0.00488     -0.00712   64288.00000
    -0.00488     -0.00242   64388.00000
    -0.00488      0.00385   64488.00000
    -0.00488      0.00799   64588.00000
    -0.00488      0.01212   64688.00000
     6.49414     -4.47129   65471.00000
     6.49414     -4.82682   65571.00000
     6.49414     -4.91559   65673.00000
     6.49414     -4.85964   65772.00000
     6.49414     -4.83576   65872.00000
     6.49414     -4.81704   65973.00000
     6.49414     -4.80102   66072.00000
     6.49414     -4.78802   66172.00000
     6.49414     -4.77651   66273.00000
     6.49414     -4.76619   66372.00000
    -6.49414      5.33944   68063.00000
    -6.49414      5.56847   68163.00000
    -6.49414      5.59028   68263.00000
    -6.49414      5.55540   68364.00000
    -6.49414      5.52722   68463.00000
    -6.49414      5.50599   68563.00000
    -6.49414      5.47392   68664.00000
    -6.49414      5.46125   68763.00000
    -6.49414      5.44944   68863.00000
    -6.49414      5.43834   68964.00000
    -0.00488      0.06458   69998.00000
    -0.00488     -0.03343   70098.00000
    -0.00488     -0.04845   70199.00000
    -0.00488     -0.03559   70298.00000
    -0.00488     -0.02411   70398.00000
    -0.00488     -0.01473   70499.00000
    -0.00488     -0.00179   70598.00000
    -0.00488      0.00409   70698.00000
    -0.00488      0.00834   70799.00000
    -0.00488      0.01096   70898.00000
     6.99219     -5.03343   71686.00000
     6.99219     -5.39400   71788.00000
     6.99219     -5.46913   71887.00000
     6.99219     -5.43601   71988.00000
     6.99219     -5.37920   72087.00000
     6.99219     -5.35983   72187.00000
     6.99219     -5.34251   72288.00000
     6.99219     -5.32803   72387.00000
     6.99219     -5.31571   72487.00000
     6.99219     -5.30537   72588.00000
    -6.99463      5.71298   74319.00000
    -6.99463      6.11278   74421.00000
    -6.99463      6.20452   74520.00000
    -6.99463      6.17524   74620.00000
    -6.99463      6.11456   74721.00000
    -6.99463      6.09530   74820.00000
    -6.99463      6.07750   74920.00000
    -6.99463      6.06283   75021.00000
    -6.99463      6.04962   75120.00000
    -6.99463      6.03800   75220.00000
    -0.00488      0.16694   76291.00000
    -0.00488     -0.05153   76393.00000
    -0.00488     -0.05185   76492.00000
    -0.00488     -0.03743   76591.00000
    -0.00488     -0.02600   76693.00000
    -0.00488     -0.01792   76792.00000
    -0.00488     -0.01039   76893.00000
    -0.00488     -0.00450   76992.00000
    -0.00488      0.00512   77092.00000
    -0.00488      0.00839   77193.00000
     7.49512     -5.61796   78006.00000
     7.49512     -5.98194   78106.00000
     7.49512     -6.05461   78206.00000
     7.49512     -6.01757   78307.00000
     7.49512     -5.95433   78406.00000
     7.49512     -5.93277   78506.00000
     7.49512     -5.91481   78607.00000
     7.49512     -5.89903   78706.00000
     7.49512     -5.88579   78806.00000
     7.49512     -5.87331   78907.00000
    -7.49512      6.02149   80681.00000
    -7.49512      6.83482   80782.00000
    -7.49512      6.83628   80882.00000
    -7.49512      6.79740   80982.00000
    -7.49512      6.76655   81083.00000
    -7.49512      6.74275   81182.00000
    -7.49512      6.72297   81282.00000
    -7.49512      6.70596   81383.00000
    -7.49512      6.67699   81482.00000
    -7.49512      6.66516   81582.00000
    -0.00488      0.08844   82678.00000
    -0.00488     -0.03202   82778.00000
    -0.00488     -0.06112   82879.00000
    -0.00488     -0.03775   82978.00000
    -0.00488     -0.02757   83078.00000
    -0.00488     -0.01946   83178.00000
    -0.00488     -0.01301   83278.00000
    -0.00488     -0.00820   83379.00000
    -0.00488     -0.00339   83478.00000
    -0.00488      0.00156   83578.00000
     7.99072     -6.24129   84410.00000
     7.99072     -6.60710   84511.00000
     7.99072     -6.67283   84611.00000
     7.99072     -6.63020   84712.00000
     7.99072     -6.59289   84811.00000
     7.99072     -6.54110   84911.00000
     7.99072     -6.52160   85012.00000
     7.99072     -6.50523   85111.00000
     7.99072     -6.49007   85211.00000
     7.99072     -6.47581   85312.00000
    -7.99561      7.10665   87117.00000
    -7.99561      7.48097   87218.00000
    -7.99561      7.54413   87317.00000
    -7.99561      7.50353   87417.00000
    -7.99561      7.46633   87518.00000
    -7.99561      7.43869   87617.00000
    -7.99561      7.39639   87717.00000
    -7.99561      7.37977   87818.00000
    -7.99561      7.36497   87917.00000
    -7.99561      7.35157   88017.00000
    -0.00488      0.01171   89130.00000
    -0.00488     -0.05861   89232.00000
    -0.00488     -0.06455   89331.00000
    -0.00488     -0.05018   89431.00000
    -0.00488     -0.03726   89532.00000
    -0.00488     -0.02789   89631.00000
    -0.00488     -0.01473   89731.00000
    -0.00488     -0.00895   89832.00000
    -0.00488     -0.00439   89931.00000
    -0.00488     -0.00001   90031.00000
     8.49365     -7.03165   90880.00000
     8.49365     -7.30899   90982.00000
     8.49365     -7.32644   91081.00000
     8.49365     -7.27711   91181.00000
     8.49365     -7.23891   91282.00000
     8.49365     -7.20989   91381.00000
     8.49365     -7.18769   91481.00000
     8.49365     -7.14927   91582.00000
     8.49365     -7.13358   91681.00000
     8.49365     -7.11974   91781.00000
    -8.49365      7.68972   93637.00000
    -8.49365      8.18026   93737.00000
    -8.49365      8.29694   93838.00000
    -8.49365      8.26153   93937.00000
    -8.49365      8.18721   94037.00000
    -8.49365      8.15919   94138.00000
    -8.49365      8.13696   94237.00000
    -8.49365      8.11853   94337.00000
    -8.49365      8.10178   94438.00000
    -8.49365      8.08793   94537.00000
    -0.00488      0.07134   95670.00000
    -0.00488     -0.04402   95770.00000
    -0.00488     -0.07166   95870.00000
    -0.00488     -0.04578   95971.00000
    -0.00488     -0.03489   96070.00000
    -0.00488     -0.02768   96169.00000
    -0.00488     -0.02122   96271.00000
    -0.00488     -0.01427   96370.00000
    -0.00488     -0.00841   96470.00000
    -0.00488     -0.00360   96571.00000
     8.99170     -7.82493   97456.00000
     8.99170     -8.02692   97557.00000
     8.99170     -8.01692   97656.00000
     8.99170     -7.96522   97757.00000
     8.99170     -7.92742   97856.00000
     8.99170     -7.89717   97956.00000
     8.99170     -7.87169   98057.00000
     8.99170     -7.85091   98156.00000
     8.99170     -7.81679   98256.00000
     8.99170     -7.80140   98357.00000
    -8.99414      8.35700  100247.00000
    -8.99414      8.93175  100347.00000
    -8.99414      9.07655  100448.00000
    -8.99414      9.02771  100547.00000
    -8.99414      8.98940  100647.00000
    -8.99414      8.96079  100748.00000
    -8.99414      8.93675  100847.00000
    -8.99414      8.91492  100947.00000
    -8.99414      8.89733  101048.00000
    -8.99414      8.86686  101147.00000
    -0.00488      0.16837  102278.00000
    -0.00488     -0.07390  102380.00000
    -0.00488     -0.07503  102479.00000
    -0.00488     -0.05866  102580.00000
    -0.00488     -0.04523  102679.00000
    -0.00488     -0.03554  102779.00000
    -0.00488     -0.02813  102880.00000
    -0.00488     -0.02119  102979.00000
    -0.00488     -0.00920  103079.00000
    -0.00488     -0.00436  103180.00000
     9.49463     -8.36647  104058.00000
     9.49463     -8.74075  104160.00000
     9.49463     -8.78057  104259.00000
     9.49463     -8.72270  104359.00000
     9.49463     -8.67742  104460.00000
     9.49463     -8.64225  104559.00000
     9.49463     -8.58870  104659.00000
     9.49463     -8.56679  104760.00000
     9.49463     -8.54775  104859.00000
     9.49463     -8.53092  104959.00000
    -9.49463      9.41287  106875.00000
    -9.49463      9.89658  106977.00000
    -9.49463      9.97595  107076.00000
    -9.49463      9.92267  107176.00000
    -9.49463      9.87386  107277.00000
    -9.49463      9.83655  107376.00000
    -9.49463      9.78154  107476.00000
    -9.49463      9.75896  107577.00000
    -9.49463      9.74035  107676.00000
    -9.49463      9.72316  107776.00000
    -0.00488      0.08957  108945.00000
    -0.00488     -0.04151  109046.00000
    -0.00488     -0.07382  109146.00000
    -0.00488     -0.05950  109247.00000
    -0.00488     -0.04807  109346.00000
    -0.00488     -0.03783  109446.00000
    -0.00488     -0.02967  109547.00000
    -0.00488     -0.02181  109646.00000
    -0.00488     -0.01663  109747.00000
    -0.00488     -0.00777  109846.00000
     9.99512     -9.02981  110756.00000
     9.99512     -9.49742  110858.00000
     9.99512     -9.58716  110957.00000
     9.99512     -9.53081  111057.00000
     9.99512     -9.43596  111158.00000
     9.99512     -9.40359  111257.00000
     9.99512     -9.37680  111357.00000
     9.99512     -9.35270  111458.00000
     9.99512     -9.33168  111557.00000
     9.99512     -9.31266  111657.00000
    -9.99512     10.35878  113640.00000
    -9.99512     10.82917  113741.00000
    -9.99512     10.90781  113842.00000
    -9.99512     10.85289  113941.00000
    -9.99512     10.80097  114041.00000
    -9.99512     10.72900  114142.00000
    -9.99512     10.70231  114241.00000
    -9.99512     10.67813  114341.00000
    -9.99512     10.65854  114442.00000
    -9.99512     10.63904  114541.00000
    -0.00488      0.12799  115703.00000
    -0.00488     -0.03421  115805.00000
    -0.00488     -0.08433  115904.00000
    -0.00488     -0.06766  116004.00000
    -0.00488     -0.05361  116105.00000
    -0.00488     -0.04380  116204.00000
    -0.00488     -0.03573  116304.00000
    -0.00488     -0.02830  116405.00000
    -0.00488     -0.02143  116504.00000
    -0.00488     -0.01233  116604.00000
    10.49316     -9.70012  117545.00000
    10.49316    -10.28502  117647.00000
    10.49316    -10.40089  117746.00000
    10.49316    -10.33590  117846.00000
    10.49316    -10.28921  117947.00000
    10.49316    -10.25104  118046.00000
    10.49316    -10.21895  118146.00000
    10.49316    -10.19263  118247.00000
    10.49316    -10.16932  118346.00000
    10.49316    -10.12790  118446.00000
   -10.49316     11.02333  120441.00000
   -10.49316     11.71414  120543.00000
   -10.49316     11.88182  120642.00000
   -10.49316     11.81826  120742.00000
   -10.49316     11.77098  120843.00000
   -10.49316     11.73259  120942.00000
   -10.49316     11.70117  121042.00000
   -10.49316     11.67405  121143.00000
   -10.49316     11.64912  121242.00000
   -10.49316     11.60632  121342.00000
    -0.00488      0.05389  122529.00000
    -0.00488     -0.06301  122629.00000
    -0.00488     -0.09338  122730.00000
    -0.00488     -0.08100  122829.00000
    -0.00488     -0.05161  122928.00000
    -0.00488     -0.04321  123029.00000
    -0.00488     -0.03629  123129.00000
    -0.00488     -0.02897  123230.00000
    -0.00488     -0.02233  123329.00000
    -0.00488     -0.01668  123429.00000
    10.99365    -10.64157  124377.00000
    10.99365    -11.24115  124478.00000
    10.99365    -11.37642  124577.00000
    10.99365    -11.24118  124677.00000
    10.99365    -11.19136  124778.00000
    10.99365    -11.15149  124877.00000
    10.99365    -11.11702  124978.00000
    10.99365    -11.08735  125077.00000
    10.99365    -11.06099  125177.00000
    10.99365    -11.03743  125278.00000
   -10.99121     12.54532  127320.00000
   -10.99121     12.98189  127421.00000
   -10.99121     13.01569  127521.00000
   -10.99121     12.94356  127621.00000
   -10.99121     12.88380  127722.00000
   -10.99121     12.83736  127821.00000
   -10.99121     12.80038  127922.00000
   -10.99121     12.74040  128021.00000
   -10.99121     12.71492  128121.00000
   -10.99121     12.69231  128222.00000
    -0.00488     -0.01911  129450.00000
    -0.00488     -0.08884  129551.00000
    -0.00488     -0.09451  129650.00000
    -0.00488     -0.08017  129750.00000
    -0.00488     -0.06490  129851.00000
    -0.00488     -0.04315  129950.00000
    -0.00488     -0.03705  130050.00000
    -0.00488     -0.02932  130151.00000
    -0.00488     -0.02305  130250.00000
    -0.00488     -0.01768  130350.00000
    10.99365    -10.72238  131299.00000
    10.99365    -11.23737  131399.00000
    10.99365    -11.32868  131499.00000
    10.99365    -11.25668  131600.00000
    10.99365    -11.14530  131699.00000
    10.99365    -11.10735  131799.00000
    10.99365    -11.07455  131900.00000
    10.99365    -11.04632  131999.00000
    10.99365    -11.02044  132099.00000
    10.99365    -10.99826  132200.00000
   -10.99365     11.61048  134243.00000
   -10.99365     12.96749  134344.00000
   -10.99365     12.97411  134444.00000
   -10.99365     12.90252  134545.00000
   -10.99365     12.84695  134644.00000
   -10.99365     12.80267  134744.00000
   -10.99365     12.76523  134845.00000
   -10.99365     12.73443  134944.00000
   -10.99365     12.68135  135044.00000
   -10.99365     12.65933  135145.00000
    -0.00488     -0.03575  136374.00000
    -0.00488     -0.09497  136475.00000
    -0.00488     -0.09443  136575.00000
    -0.00488     -0.07884  136675.00000
    -0.00488     -0.06425  136775.00000
    -0.00488     -0.05364  136875.00000
    -0.00488     -0.03681  136976.00000
    -0.00488     -0.02932  137075.00000
    -0.00488     -0.02303  137175.00000
    -0.00488     -0.01911  137276.00000
    10.49316     -9.95754  138216.00000
    10.49316    -10.29216  138316.00000
    10.49316    -10.31574  138416.00000
    10.49316    -10.24783  138517.00000
    10.49316    -10.19528  138616.00000
    10.49316    -10.15624  138717.00000
    10.49316    -10.09519  138816.00000
    10.49316    -10.07028  138916.00000
    10.49316    -10.04961  139017.00000
    10.49316    -10.03111  139116.00000
   -10.49316     11.37885  141111.00000
   -10.49316     11.77228  141212.00000
   -10.49316     11.81240  141312.00000
   -10.49316     11.75229  141413.00000
   -10.49316     11.70090  141512.00000
   -10.49316     11.66060  141612.00000
   -10.49316     11.59830  141713.00000
   -10.49316     11.57366  141812.00000
   -10.49316     11.55140  141912.00000
   -10.49316     11.53033  142013.00000
    -0.00488      0.13444  143192.00000
    -0.00488     -0.09359  143294.00000
    -0.00488     -0.09335  143393.00000
    -0.00488     -0.07698  143492.00000
    -0.00488     -0.06255  143594.00000
    -0.00488     -0.05104  143693.00000
    -0.00488     -0.04267  143794.00000
    -0.00488     -0.03632  143893.00000
    -0.00488     -0.02211  143993.00000
    -0.00488     -0.01865  144094.00000
     9.99512     -8.81461  145003.00000
     9.99512     -9.32344  145104.00000
     9.99512     -9.44020  145205.00000
     9.99512     -9.38801  145304.00000
     9.99512     -9.29213  145404.00000
     9.99512     -9.25968  145505.00000
     9.99512     -9.23253  145604.00000
     9.99512     -9.20876  145704.00000
     9.99512     -9.18858  145805.00000
     9.99512     -9.17091  145904.00000
    -9.99512     10.14255  147886.00000
    -9.99512     10.67005  147988.00000
    -9.99512     10.77684  148087.00000
    -9.99512     10.72670  148187.00000
    -9.99512     10.67527  148288.00000
    -9.99512     10.60554  148387.00000
    -9.99512     10.57777  148488.00000
    -9.99512     10.55456  148587.00000
    -9.99512     10.53495  148687.00000
    -9.99512     10.51558  148788.00000
    -0.00488      0.13685  149950.00000
    -0.00488     -0.09294  150050.00000
    -0.00488     -0.09176  150150.00000
    -0.00488     -0.07536  150251.00000
    -0.00488     -0.06120  150350.00000
    -0.00488     -0.05088  150451.00000
    -0.00488     -0.04197  150550.00000
    -0.00488     -0.03284  150650.00000
    -0.00488     -0.02184  150751.00000
    -0.00488     -0.01762  150850.00000
     9.49463     -8.19979  151731.00000
     9.49463     -8.57360  151831.00000
     9.49463     -8.61337  151931.00000
     9.49463     -8.55596  152032.00000
     9.49463     -8.50995  152131.00000
     9.49463     -8.47494  152231.00000
     9.49463     -8.42307  152332.00000
     9.49463     -8.40354  152431.00000
     9.49463     -8.38423  152531.00000
     9.49463     -8.36718  152632.00000
    -9.49463      9.25296  154547.00000
    -9.49463      9.74189  154647.00000
    -9.49463      9.82617  154747.00000
    -9.49463      9.77376  154848.00000
    -9.49463      9.72703  154947.00000
    -9.49463      9.69137  155047.00000
    -9.49463      9.63761  155148.00000
    -9.49463      9.61599  155247.00000
    -9.49463      9.59633  155347.00000
    -9.49463      9.58042  155448.00000
    -0.00488      0.07393  156615.00000
    -0.00488     -0.05269  156715.00000
    -0.00488     -0.08125  156816.00000
    -0.00488     -0.06496  156915.00000
    -0.00488     -0.05234  157015.00000
    -0.00488     -0.04270  157116.00000
    -0.00488     -0.03446  157215.00000
    -0.00488     -0.02657  157315.00000
    -0.00488     -0.02092  157416.00000
    -0.00488     -0.01328  157515.00000
     8.99414     -7.57530  158402.00000
     8.99414     -7.83511  158503.00000
     8.99414     -7.84648  158604.00000
     8.99414     -7.79351  158703.00000
     8.99414     -7.75247  158803.00000
     8.99414     -7.72170  158904.00000
     8.99414     -7.67545  159003.00000
     8.99414     -7.65689  159103.00000
     8.99414     -7.64141  159204.00000
     8.99414     -7.62712  159303.00000
    -8.99414      8.68699  161194.00000
    -8.99414      8.92319  161296.00000
    -8.99414      8.92267  161395.00000
    -8.99414      8.87391  161495.00000
    -8.99414      8.83693  161596.00000
    -8.99414      8.80853  161695.00000
    -8.99414      8.78214  161795.00000
    -8.99414      8.74226  161896.00000
    -8.99414      8.72714  161995.00000
    -8.99414      8.71284  162095.00000
    -0.00488      0.00526  163227.00000
    -0.00488     -0.07357  163328.00000
    -0.00488     -0.08297  163429.00000
    -0.00488     -0.06868  163528.00000
    -0.00488     -0.05439  163628.00000
    -0.00488     -0.04310  163729.00000
    -0.00488     -0.02624  163828.00000
    -0.00488     -0.02000  163928.00000
    -0.00488     -0.01482  164029.00000
    -0.00488     -0.01065  164128.00000
     8.49121     -6.85043  164978.00000
     8.49121     -7.12212  165078.00000
     8.49121     -7.13752  165179.00000
     8.49121     -7.08876  165278.00000
     8.49121     -7.05180  165378.00000
     8.49121     -7.02308  165479.00000
     8.49121     -6.99907  165578.00000
     8.49121     -6.96330  165678.00000
     8.49121     -6.94876  165779.00000
     8.49121     -6.93639  165878.00000
    -8.49365      7.58131  167726.00000
    -8.49365      8.03057  167828.00000
    -8.49365      8.12602  167927.00000
    -8.49365      8.08779  168027.00000
    -8.49365      8.04813  168128.00000
    -8.49365      7.99186  168227.00000
    -8.49365      7.97062  168328.00000
    -8.49365      7.95277  168427.00000
    -8.49365      7.93613  168527.00000
    -8.49365      7.92224  168628.00000
    -0.00488      0.04235  169759.00000
    -0.00488     -0.05831  169859.00000
    -0.00488     -0.07914  169960.00000
    -0.00488     -0.06698  170059.00000
    -0.00488     -0.04240  170159.00000
    -0.00488     -0.03313  170260.00000
    -0.00488     -0.02559  170359.00000
    -0.00488     -0.01906  170459.00000
    -0.00488     -0.01382  170560.00000
    -0.00488     -0.00947  170659.00000
     7.99072     -6.11264  171491.00000
     7.99072     -6.43939  171592.00000
     7.99072     -6.48548  171692.00000
     7.99072     -6.44036  171793.00000
     7.99072     -6.40338  171892.00000
     7.99072     -6.35399  171992.00000
     7.99072     -6.33511  172093.00000
     7.99072     -6.31885  172192.00000
     7.99072     -6.30442  172292.00000
     7.99072     -6.29170  172393.00000
    -7.99316      6.99148  174204.00000
    -7.99316      7.32669  174305.00000
    -7.99316      7.37086  174404.00000
    -7.99316      7.32952  174504.00000
    -7.99316      7.29411  174605.00000
    -7.99316      7.26677  174704.00000
    -7.99316      7.22643  174804.00000
    -7.99316      7.20993  174905.00000
    -7.99316      7.19561  175004.00000
    -7.99316      7.18305  175104.00000
    -0.00488     -0.00363  176211.00000
    -0.00488     -0.06706  176313.00000
    -0.00488     -0.07090  176412.00000
    -0.00488     -0.05769  176512.00000
    -0.00488     -0.04505  176613.00000
    -0.00488     -0.03438  176712.00000
    -0.00488     -0.02600  176812.00000
    -0.00488     -0.01249  176912.00000
    -0.00488     -0.00857  177012.00000
    -0.00488     -0.00487  177112.00000
     7.49512     -5.35402  177925.00000
     7.49512     -5.76976  178027.00000
     7.49512     -5.87366  178126.00000
     7.49512     -5.80277  178227.00000
     7.49512     -5.77508  178326.00000
     7.49512     -5.75401  178426.00000
     7.49512     -5.73661  178527.00000
     7.49512     -5.72040  178626.00000
     7.49512     -5.70719  178726.00000
     7.49512     -5.69482  178827.00000
    -7.49512      6.38985  180601.00000
    -7.49512      6.65430  180703.00000
    -7.49512      6.67394  180802.00000
    -7.49512      6.63223  180902.00000
    -7.49512      6.60054  181003.00000
    -7.49512      6.57558  181102.00000
    -7.49512      6.55588  181202.00000
    -7.49512      6.52495  181303.00000
    -7.49512      6.51339  181402.00000
    -7.49512      6.50134  181502.00000
    -0.00488      0.10138  182592.00000
    -0.00488     -0.03186  182692.00000
    -0.00488     -0.05961  182793.00000
    -0.00488     -0.04564  182892.00000
    -0.00488     -0.03456  182992.00000
    -0.00488     -0.02535  183093.00000
    -0.00488     -0.01746  183192.00000
    -0.00488     -0.01201  183292.00000
    -0.00488     -0.00736  183393.00000
    -0.00488      0.00072  183492.00000
     6.99463     -5.06036  184281.00000
     6.99463     -5.27211  184382.00000
     6.99463     -5.27830  184481.00000
     6.99463     -5.23937  184581.00000
     6.99463     -5.21103  184682.00000
     6.99463     -5.18893  184781.00000
     6.99463     -5.17078  184882.00000
     6.99463     -5.15532  184981.00000
     6.99463     -5.13001  185081.00000
     6.99463     -5.11974  185182.00000
    -6.99463      5.78824  186914.00000
    -6.99463      6.02201  187014.00000
    -6.99463      6.03443  187115.00000
    -6.99463      5.99656  187214.00000
    -6.99463      5.96765  187315.00000
    -6.99463      5.94542  187414.00000
    -6.99463      5.92694  187514.00000
    -6.99463      5.89706  187615.00000
    -6.99463      5.88690  187714.00000
    -6.99463      5.87545  187814.00000
    -0.00488      0.05942  188885.00000
    -0.00488     -0.03864  188986.00000
    -0.00488     -0.05861  189085.00000
    -0.00488     -0.04677  189185.00000
    -0.00488     -0.02584  189286.00000
    -0.00488     -0.01860  189385.00000
    -0.00488     -0.01198  189485.00000
    -0.00488     -0.00555  189586.00000
    -0.00488     -0.00047  189685.00000
    -0.00488      0.00318  189785.00000
     6.49414     -4.31498  190569.00000
     6.49414     -4.65584  190669.00000
     6.49414     -4.73745  190770.00000
     6.49414     -4.67891  190869.00000
     6.49414     -4.65624  190969.00000
     6.49414     -4.63711  191070.00000
     6.49414     -4.62150  191169.00000
     6.49414     -4.60926  191269.00000
     6.49414     -4.59800  191370.00000
     6.49414     -4.58800  191469.00000
    -6.49414      5.22481  193158.00000
    -6.49414      5.42232  193260.00000
    -6.49414      5.43207  193360.00000
    -6.49414      5.39776  193460.00000
    -6.49414      5.37037  193559.00000
    -6.49414      5.34946  193659.00000
    -6.49414      5.31899  193760.00000
    -6.49414      5.30680  193859.00000
    -6.49414      5.29470  193959.00000
    -6.49414      5.28573  194060.00000
    -0.00488      0.04597  195093.00000
    -0.00488     -0.04124  195194.00000
    -0.00488     -0.05296  195295.00000
    -0.00488     -0.04005  195394.00000
    -0.00488     -0.02886  195494.00000
    -0.00488     -0.01965  195595.00000
    -0.00488     -0.00690  195694.00000
    -0.00488     -0.00112  195794.00000
    -0.00488      0.00464  195895.00000
    -0.00488      0.00766  195994.00000
     5.99365     -4.02387  196746.00000
     5.99365     -4.19917  196847.00000
     5.99365     -4.20282  196947.00000
     5.99365     -4.17021  197048.00000
     5.99365     -4.14573  197147.00000
     5.99365     -4.12755  197247.00000
     5.99365     -4.11367  197348.00000
     5.99365     -4.08943  197447.00000
     5.99365     -4.07927  197547.00000
     5.99365     -4.07187  197648.00000
    -5.99365      4.65603  199294.00000
    -5.99365      4.85702  199396.00000
    -5.99365      4.87164  199495.00000
    -5.99365      4.84022  199595.00000
    -5.99365      4.81488  199696.00000
    -5.99365      4.79613  199795.00000
    -5.99365      4.77995  199895.00000
    -5.99365      4.75464  199996.00000
    -5.99365      4.74502  200095.00000
    -5.99365      4.73713  200195.00000
    -0.00488      0.18821  201194.00000
    -0.00488      0.01104  201294.00000
    -0.00488     -0.04564  201395.00000
    -0.00488     -0.02984  201494.00000
    -0.00488     -0.01879  201594.00000
    -0.00488     -0.01030  201695.00000
    -0.00488     -0.00352  201794.00000
    -0.00488      0.00175  201894.00000
    -0.00488      0.00642  201995.00000
    -0.00488      0.01080  202094.00000
     5.49316     -3.47281  202810.00000
     5.49316     -3.69960  202911.00000
     5.49316     -3.72383  203011.00000
     5.49316     -3.69152  203112.00000
     5.49316     -3.66878  203211.00000
     5.49316     -3.65062  203311.00000
     5.49316     -3.63722  203412.00000
     5.49316     -3.61588  203511.00000
     5.49316     -3.60710  203611.00000
     5.49316     -3.59943  203712.00000
    -5.49316      4.02649  205279.00000
    -5.49316      4.30397  205380.00000
    -5.49316      4.35205  205480.00000
    -5.49316      4.32539  205581.00000
    -5.49316      4.30048  205680.00000
    -5.49316      4.28187  205780.00000
    -5.49316      4.25369  205881.00000
    -5.49316      4.24191  205980.00000
    -5.49316      4.23305  206080.00000
    -5.49316      4.22481  206181.00000
    -0.00488      0.16994  207147.00000
    -0.00488      0.00685  207249.00000
    -0.00488     -0.03870  207348.00000
    -0.00488     -0.03294  207448.00000
    -0.00488     -0.00882  207549.00000
    -0.00488     -0.00277  207648.00000
    -0.00488      0.00234  207748.00000
    -0.00488      0.00801  207849.00000
    -0.00488      0.01152  207948.00000
    -0.00488      0.01471  208048.00000
     4.99268     -2.79380  208751.00000
     4.99268     -3.15800  208851.00000
     4.99268     -3.25863  208952.00000
     4.99268     -3.23186  209051.00000
     4.99268     -3.21403  209151.00000
     4.99268     -3.19949  209252.00000
     4.99268     -3.18742  209351.00000
     4.99268     -3.17672  209451.00000
     4.99268     -3.16853  209552.00000
     4.99268     -3.15519  209651.00000
    -4.99512      3.38755  211201.00000
    -4.99512      3.75431  211303.00000
    -4.99512      3.84870  211402.00000
    -4.99512      3.82277  211502.00000
    -4.99512      3.80394  211603.00000
    -4.99512      3.78919  211702.00000
    -4.99512      3.77706  211802.00000
    -4.99512      3.76598  211903.00000
    -4.99512      3.75655  212002.00000
    -4.99512      3.74899  212102.00000
    -0.00488      0.24615  213052.00000
    -0.00488      0.04600  213152.00000
    -0.00488     -0.02651  213252.00000
    -0.00488     -0.01541  213353.00000
    -0.00488     -0.00685  213452.00000
    -0.00488      0.00131  213552.00000
    -0.00488      0.00801  213652.00000
    -0.00488      0.01239  213752.00000
    -0.00488      0.01728  213853.00000
    -0.00488      0.02349  213952.00000
     4.49463     -2.38401  214637.00000
     4.49463     -2.83854  214738.00000
     4.49463     -2.83160  214839.00000
     4.49463     -2.80596  214938.00000
     4.49463     -2.78905  215038.00000
     4.49463     -2.77597  215139.00000
     4.49463     -2.76482  215238.00000
     4.49463     -2.75550  215338.00000
     4.49463     -2.74131  215439.00000
     4.49463     -2.73548  215538.00000
    -4.49463      2.81688  217015.00000
    -4.49463      3.38877  217116.00000
    -4.49463      3.39630  217216.00000
    -4.49463      3.37221  217317.00000
    -4.49463      3.35381  217416.00000
    -4.49463      3.34006  217516.00000
    -4.49463      3.32885  217617.00000
    -4.49463      3.31788  217716.00000
    -4.49463      3.30072  217816.00000
    -4.49463      3.29340  217917.00000
    -0.00488      0.24872  218840.00000
    -0.00488      0.04870  218941.00000
    -0.00488     -0.01798  219041.00000
    -0.00488     -0.00725  219141.00000
    -0.00488      0.00175  219242.00000
    -0.00488      0.00936  219341.00000
    -0.00488      0.01596  219442.00000
    -0.00488      0.02022  219541.00000
    -0.00488      0.02298  219641.00000
    -0.00488      0.03081  219742.00000
     3.99414     -2.14287  220376.00000
     3.99414     -2.38525  220478.00000
     3.99414     -2.43145  220577.00000
     3.99414     -2.41119  220677.00000
     3.99414     -2.39230  220778.00000
     3.99414     -2.37866  220877.00000
     3.99414     -2.35915  220978.00000
     3.99414     -2.35089  221077.00000
     3.99414     -2.34497  221177.00000
     3.99414     -2.33897  221278.00000
    -3.99414      2.47065  222693.00000
    -3.99414      2.84082  222793.00000
    -3.99414      2.96176  222893.00000
    -3.99414      2.93299  222994.00000
    -3.99414      2.91721  223093.00000
    -3.99414      2.90660  223193.00000
    -3.99414      2.89520  223294.00000
    -3.99414      2.88596  223393.00000
    -3.99414      2.87828  223493.00000
    -3.99414      2.87137  223594.00000
    -0.00488      0.12053  224499.00000
    -0.00488      0.00555  224600.00000
    -0.00488     -0.01638  224701.00000
    -0.00488     -0.00717  224800.00000
    -0.00488      0.00328  224900.00000
    -0.00488      0.01028  225001.00000
    -0.00488      0.02106  225100.00000
    -0.00488      0.02474  225200.00000
    -0.00488      0.02746  225301.00000
    -0.00488      0.03081  225400.00000
     3.49121     -1.70122  226013.00000
     3.49121     -1.97251  226114.00000
     3.49121     -2.04491  226214.00000
     3.49121     -2.03100  226315.00000
     3.49121     -2.00085  226414.00000
     3.49121     -1.99069  226514.00000
     3.49121     -1.98313  226615.00000
     3.49121     -1.97683  226714.00000
     3.49121     -1.96927  226814.00000
     3.49121     -1.96376  226915.00000
    -3.49365      2.23878  228281.00000
    -3.49365      2.49413  228381.00000
    -3.49365      2.54951  228481.00000
    -3.49365      2.53424  228582.00000
    -3.49365      2.51725  228681.00000
    -3.49365      2.49286  228781.00000
    -3.49365      2.48292  228882.00000
    -3.49365      2.47643  228981.00000
    -3.49365      2.47019  229081.00000
    -3.49365      2.46244  229182.00000
    -0.00488      0.21101  230038.00000
    -0.00488      0.04194  230139.00000
    -0.00488     -0.00466  230240.00000
    -0.00488     -0.00096  230339.00000
    -0.00488      0.00866  230439.00000
    -0.00488      0.02303  230540.00000
    -0.00488      0.02706  230639.00000
    -0.00488      0.03089  230739.00000
    -0.00488      0.03522  230840.00000
    -0.00488      0.03808  230939.00000
     2.99316     -1.43731  231514.00000
     2.99316     -1.64165  231615.00000
     2.99316     -1.67893  231714.00000
     2.99316     -1.66124  231814.00000
     2.99316     -1.64649  231915.00000
     2.99316     -1.63622  232015.00000
     2.99316     -1.62336  232115.00000
     2.99316     -1.61696  232214.00000
     2.99316     -1.61083  232314.00000
     2.99316     -1.60659  232415.00000
    -2.99316      1.89155  233708.00000
    -2.99316      2.11416  233808.00000
    -2.99316      2.15503  233909.00000
    -2.99316      2.13839  234008.00000
    -2.99316      2.12361  234108.00000
    -2.99316      2.11237  234209.00000
    -2.99316      2.09592  234308.00000
    -2.99316      2.08968  234408.00000
    -2.99316      2.08333  234509.00000
    -2.99316      2.07806  234608.00000
    -0.00488      0.12610  235453.00000
    -0.00488      0.01706  235554.00000
    -0.00488      0.00280  235654.00000
    -0.00488      0.01258  235755.00000
    -0.00488      0.02084  235854.00000
    -0.00488      0.02690  235955.00000
    -0.00488      0.03160  236054.00000
    -0.00488      0.03889  236154.00000
    -0.00488      0.04162  236255.00000
    -0.00488      0.04227  236354.00000
     2.49268     -0.99501  236886.00000
     2.49268     -1.25860  236988.00000
     2.49268     -1.33568  237087.00000
     2.49268     -1.32809  237187.00000
     2.49268     -1.31407  237288.00000
     2.49268     -1.29591  237387.00000
     2.49268     -1.29013  237487.00000
     2.49268     -1.28605  237588.00000
     2.49268     -1.28130  237687.00000
     2.49268     -1.27681  237787.00000
    -2.49512      1.39657  238996.00000
    -2.49512      1.68912  239097.00000
    -2.49512      1.77668  239198.00000
    -2.49512      1.77095  239297.00000
    -2.49512      1.74656  239397.00000
    -2.49512      1.73772  239498.00000
    -2.49512      1.73092  239597.00000
    -2.49512      1.72584  239697.00000
    -2.49512      1.72041  239798.00000
    -2.49512      1.71457  239897.00000
    -0.00488      0.38609  240700.00000
    -0.00488      0.03235  240800.00000
    -0.00488      0.02352  240900.00000
    -0.00488      0.03143  241001.00000
    -0.00488      0.03824  241100.00000
    -0.00488      0.04365  241200.00000
    -0.00488      0.04805  241301.00000
    -0.00488      0.05099  241400.00000
    -0.00488      0.05397  241501.00000
    -0.00488      0.05804  241600.00000
     1.99463     -0.57455  242103.00000
     1.99463     -0.87450  242203.00000
     1.99463     -1.01444  242303.00000
     1.99463     -1.00107  242404.00000
     1.99463     -0.99007  242503.00000
     1.99463     -0.98377  242603.00000
     1.99463     -0.97832  242704.00000
     1.99463     -0.97432  242803.00000
     1.99463     -0.97016  242903.00000
     1.99463     -0.96270  243004.00000
    -1.99463      1.20739  244143.00000
    -1.99463      1.39201  244245.00000
    -1.99463      1.42578  244344.00000
    -1.99463      1.41467  244445.00000
    -1.99463      1.40249  244544.00000
    -1.99463      1.39430  244644.00000
    -1.99463      1.38809  244745.00000
    -1.99463      1.37847  244844.00000
    -1.99463      1.37391  244944.00000
    -1.99463      1.37067  245045.00000
    -0.00488      0.19455  245816.00000
    -0.00488      0.06407  245917.00000
    -0.00488      0.03916  246017.00000
    -0.00488      0.04486  246118.00000
    -0.00488      0.05140  246217.00000
    -0.00488      0.05526  246317.00000
    -0.00488      0.06256  246418.00000
    -0.00488      0.06431  246517.00000
    -0.00488      0.06691  246617.00000
    -0.00488      0.06915  246718.00000
     1.49170     -0.37285  247176.00000
     1.49170     -0.61512  247277.00000
     1.49170     -0.70584  247377.00000
     1.49170     -0.69655  247478.00000
     1.49170     -0.68944  247577.00000
     1.49170     -0.68380  247677.00000
     1.49170     -0.67920  247778.00000
     1.49170     -0.67434  247877.00000
     1.49170     -0.67086  247977.00000
     1.49170     -0.66907  248078.00000
    -1.49170      0.64852  249126.00000
    -1.49170      1.07766  249228.00000
    -1.49170      1.09668  249327.00000
    -1.49170      1.08536  249427.00000
    -1.49170      1.07701  249528.00000
    -1.49170      1.07080  249627.00000
    -1.49170      1.06615  249727.00000
    -1.49170      1.06113  249828.00000
    -1.49170      1.05713  249927.00000
    -1.49170      1.05170  250027.00000
    -0.00488      0.31331  250751.00000
    -0.00488      0.11624  250852.00000
    -0.00488      0.06185  250951.00000
    -0.00488      0.06110  251051.00000
    -0.00488      0.06853  251152.00000
    -0.00488      0.07671  251251.00000
    -0.00488      0.07947  251351.00000
    -0.00488      0.08198  251452.00000
    -0.00488      0.08355  251551.00000
    -0.00488      0.08455  251651.00000
     0.99365     -0.21122  252056.00000
     0.99365     -0.37663  252157.00000
     0.99365     -0.42537  252258.00000
     0.99365     -0.41953  252357.00000
     0.99365     -0.41356  252457.00000
     0.99365     -0.40767  252558.00000
     0.99365     -0.40151  252657.00000
     0.99365     -0.39984  252757.00000
     0.99365     -0.39778  252858.00000
     0.99365     -0.39538  252957.00000
    -0.99365      0.53484  253903.00000
    -0.99365      0.71944  254005.00000
    -0.99365      0.78292  254104.00000
    -0.99365      0.77976  254204.00000
    -0.99365      0.77133  254305.00000
    -0.99365      0.76204  254404.00000
    -0.99365      0.75785  254504.00000
    -0.99365      0.75563  254605.00000
    -0.99365      0.75372  254704.00000
    -0.99365      0.75223  254804.00000
    -0.00488      0.31285  255467.00000
    -0.00488      0.12942  255567.00000
    -0.00488      0.08263  255668.00000
    -0.00488      0.08476  255767.00000
    -0.00488      0.09006  255867.00000
    -0.00488      0.09422  255968.00000
    -0.00488      0.09584  256067.00000
    -0.00488      0.09768  256167.00000
    -0.00488      0.09946  256268.00000
    -0.00488      0.10205  256367.00000
     0.49316     -0.00090  256705.00000
     0.49316     -0.11264  256806.00000
     0.49316     -0.16083  256907.00000
     0.49316     -0.15851  257006.00000
     0.49316     -0.15354  257106.00000
     0.49316     -0.15030  257207.00000
     0.49316     -0.14657  257306.00000
     0.49316     -0.14435  257406.00000
     0.49316     -0.14363  257507.00000
     0.49316     -0.14300  257606.00000
    -0.49072      0.24202  258418.00000
    -0.49072      0.36705  258518.00000
    -0.49072      0.48078  258619.00000
    -0.49072      0.47665  258718.00000
    -0.49072      0.47332  258818.00000
    -0.49072      0.47025  258919.00000
    -0.49072      0.46784  259018.00000
    -0.49072      0.46587  259118.00000
    -0.49072      0.46349  259219.00000
    -0.49072      0.46117  259318.00000
    -0.00488      0.41481  259908.00000
    -0.00488      0.26687  260008.00000
    -0.00488      0.10951  260109.00000
    -0.00488      0.11197  260208.00000
    -0.00488      0.11478  260308.00000
    -0.00488      0.11694  260409.00000
    -0.00488      0.11829  260508.00000
    -0.00488      0.11945  260608.00000
    -0.00488      0.11972  260709.00000
    -0.00488      0.12010  260808.00000