# Acquired on 03/09/2024 17:42:18 
# SPIDER: CNT0771454C-2_PostRodaggio_2024-09-03
# TRACKING MEASUREMENT

  # pos [mm]    force [N]     time [ms]
     0.49561     -0.09712     242.00000
     0.49561     -0.39617     343.00000
     0.49561     -0.59328     442.00000
     0.49561     -0.60063     542.00000
     0.49561     -0.59433     643.00000
     0.49561     -0.58904     742.00000
     0.49561     -0.58385     842.00000
     0.49561     -0.57977     943.00000
     0.49561     -0.57810    1042.00000
     0.49561     -0.57653    1142.00000
    -0.49316      0.32397    1948.00000
    -0.49316      0.58743    2050.00000
    -0.49316      0.67069    2149.00000
    -0.49316      0.66285    2249.00000
    -0.49316      0.65475    2350.00000
    -0.49316      0.64813    2449.00000
    -0.49316      0.63870    2549.00000
    -0.49316      0.63597    2650.00000
    -0.49316      0.63292    2749.00000
    -0.49316      0.63035    2849.00000
    -0.00488      0.41993    3444.00000
    -0.00488      0.09939    3546.00000
    -0.00488     -0.02874    3645.00000
    -0.00488     -0.03287    3745.00000
    -0.00488     -0.02823    3846.00000
    -0.00488     -0.02358    3945.00000
    -0.00488     -0.01750    4045.00000
    -0.00488     -0.01612    4146.00000
    -0.00488     -0.01502    4245.00000
    -0.00488     -0.01323    4345.00000
     0.99365     -0.72136    4750.00000
     0.99365     -1.04859    4851.00000
     0.99365     -1.11176    4952.00000
     0.99365     -1.09636    5051.00000
     0.99365     -1.08315    5151.00000
     0.99365     -1.07456    5252.00000
     0.99365     -1.06140    5351.00000
     0.99365     -1.05543    5451.00000
     0.99365     -1.05111    5552.00000
     0.99365     -1.04811    5651.00000
    -0.99365      0.79801    6597.00000
    -0.99365      1.16753    6699.00000
    -0.99365      1.26840    6798.00000
    -0.99365      1.25816    6898.00000
    -0.99365      1.24379    6999.00000
    -0.99365      1.23393    7098.00000
    -0.99365      1.21886    7198.00000
    -0.99365      1.21459    7299.00000
    -0.99365      1.20794    7398.00000
    -0.99365      1.20294    7498.00000
    -0.00488      0.36812    8166.00000
    -0.00488      0.01622    8266.00000
    -0.00488     -0.05821    8368.00000
    -0.00488     -0.05138    8467.00000
    -0.00488     -0.04263    8567.00000
    -0.00488     -0.03644    8668.00000
    -0.00488     -0.03239    8767.00000
    -0.00488     -0.02585    8867.00000
    -0.00488     -0.02342    8968.00000
    -0.00488     -0.02053    9067.00000
     1.49414     -0.95137    9526.00000
     1.49414     -1.45990    9627.00000
     1.49414     -1.63505    9728.00000
     1.49414     -1.61419    9827.00000
     1.49414     -1.60063    9927.00000
     1.49414     -1.59028   10028.00000
     1.49414     -1.58199   10127.00000
     1.49414     -1.57518   10227.00000
     1.49414     -1.56772   10328.00000
     1.49414     -1.56264   10427.00000
    -1.49414      1.54196   11489.00000
    -1.49414      1.83486   11590.00000
    -1.49414      1.87544   11691.00000
    -1.49414      1.85461   11790.00000
    -1.49414      1.83759   11890.00000
    -1.49414      1.82508   11991.00000
    -1.49414      1.81463   12090.00000
    -1.49414      1.79942   12190.00000
    -1.49414      1.79334   12291.00000
    -1.49414      1.78718   12390.00000
    -0.00488      0.56573   13107.00000
    -0.00488      0.07546   13208.00000
    -0.00488     -0.07091   13309.00000
    -0.00488     -0.07361   13407.00000
    -0.00488     -0.05132   13508.00000
    -0.00488     -0.04487   13609.00000
    -0.00488     -0.03898   13708.00000
    -0.00488     -0.03457   13808.00000
    -0.00488     -0.02995   13909.00000
    -0.00488     -0.02709   14008.00000
     1.99219     -1.56872   14511.00000
     1.99219     -2.06251   14611.00000
     1.99219     -2.20915   14711.00000
     1.99219     -2.19902   14812.00000
     1.99219     -2.15979   14911.00000
     1.99219     -2.14825   15011.00000
     1.99219     -2.13718   15112.00000
     1.99219     -2.12756   15211.00000
     1.99219     -2.11973   15311.00000
     1.99219     -2.11341   15412.00000
    -1.99463      1.61501   16553.00000
    -1.99463      2.49376   16654.00000
    -1.99463      2.51138   16754.00000
    -1.99463      2.48536   16855.00000
    -1.99463      2.46578   16954.00000
    -1.99463      2.45038   17054.00000
    -1.99463      2.43709   17155.00000
    -1.99463      2.42585   17254.00000
    -1.99463      2.40958   17354.00000
    -1.99463      2.40256   17455.00000
    -0.00488      0.72002   18220.00000
    -0.00488     -0.07369   18320.00000
    -0.00488     -0.09503   18420.00000
    -0.00488     -0.07931   18521.00000
    -0.00488     -0.06772   18620.00000
    -0.00488     -0.05959   18720.00000
    -0.00488     -0.05219   18821.00000
    -0.00488     -0.04662   18920.00000
    -0.00488     -0.03687   19020.00000
    -0.00488     -0.03352   19121.00000
     2.49512     -2.31029   19652.00000
     2.49512     -2.73252   19754.00000
     2.49512     -2.81913   19853.00000
     2.49512     -2.79284   19953.00000
     2.49512     -2.76937   20054.00000
     2.49512     -2.75208   20153.00000
     2.49512     -2.72474   20253.00000
     2.49512     -2.71515   20354.00000
     2.49512     -2.70528   20453.00000
     2.49512     -2.69691   20553.00000
    -2.49512      2.60404   21762.00000
    -2.49512      3.08011   21863.00000
    -2.49512      3.18992   21963.00000
    -2.49512      3.16553   22064.00000
    -2.49512      3.13770   22163.00000
    -2.49512      3.10096   22263.00000
    -2.49512      3.08826   22364.00000
    -2.49512      3.07562   22463.00000
    -2.49512      3.06522   22563.00000
    -2.49512      3.05690   22664.00000
    -0.00488      0.56419   23459.00000
    -0.00488      0.06003   23560.00000
    -0.00488     -0.10354   23659.00000
    -0.00488     -0.09085   23759.00000
    -0.00488     -0.07710   23860.00000
    -0.00488     -0.06699   23959.00000
    -0.00488     -0.06024   24059.00000
    -0.00488     -0.05440   24160.00000
    -0.00488     -0.04868   24259.00000
    -0.00488     -0.04446   24360.00000
     2.99316     -2.80135   24934.00000
     2.99316     -3.31351   25035.00000
     2.99316     -3.44850   25136.00000
     2.99316     -3.42778   25235.00000
     2.99316     -3.37724   25335.00000
     2.99316     -3.35895   25436.00000
     2.99316     -3.34482   25535.00000
     2.99316     -3.33423   25635.00000
     2.99316     -3.32334   25736.00000
     2.99316     -3.31399   25835.00000
    -2.99316      3.15189   27128.00000
    -2.99316      3.72464   27230.00000
    -2.99316      3.88860   27329.00000
    -2.99316      3.83562   27429.00000
    -2.99316      3.81109   27530.00000
    -2.99316      3.79026   27629.00000
    -2.99316      3.77394   27730.00000
    -2.99316      3.76141   27829.00000
    -2.99316      3.74903   27929.00000
    -2.99316      3.73796   28030.00000
    -0.00488      0.29431   28868.00000
    -0.00488     -0.05024   28969.00000
    -0.00488     -0.13334   29068.00000
    -0.00488     -0.12073   29168.00000
    -0.00488     -0.08909   29269.00000
    -0.00488     -0.07937   29368.00000
    -0.00488     -0.07237   29468.00000
    -0.00488     -0.06510   29569.00000
    -0.00488     -0.05983   29668.00000
    -0.00488     -0.05478   29768.00000
     3.49365     -3.35633   30381.00000
     3.49365     -3.93240   30481.00000
     3.49365     -4.10668   30581.00000
     3.49365     -4.05754   30682.00000
     3.49365     -4.03225   30781.00000
     3.49365     -4.01407   30881.00000
     3.49365     -3.99818   30982.00000
     3.49365     -3.98379   31081.00000
     3.49365     -3.97014   31181.00000
     3.49365     -3.95920   31282.00000
    -3.49365      3.85455   32654.00000
    -3.49365      4.44862   32755.00000
    -3.49365      4.61893   32856.00000
    -3.49365      4.55874   32955.00000
    -3.49365      4.53180   33055.00000
    -3.49365      4.50954   33156.00000
    -3.49365      4.49193   33255.00000
    -3.49365      4.47675   33355.00000
    -3.49365      4.46305   33456.00000
    -3.49365      4.44997   33555.00000
    -0.00488      0.51951   34437.00000
    -0.00488     -0.13423   34538.00000
    -0.00488     -0.14504   34638.00000
    -0.00488     -0.12413   34739.00000
    -0.00488     -0.10792   34838.00000
    -0.00488     -0.09544   34938.00000
    -0.00488     -0.08593   35039.00000
    -0.00488     -0.07256   35138.00000
    -0.00488     -0.06548   35237.00000
    -0.00488     -0.05900   35339.00000
     3.99414     -4.10900   35974.00000
     3.99414     -4.65487   36075.00000
     3.99414     -4.79995   36175.00000
     3.99414     -4.77493   36276.00000
     3.99414     -4.71047   36375.00000
     3.99414     -4.68835   36475.00000
     3.99414     -4.67006   36576.00000
     3.99414     -4.65377   36675.00000
     3.99414     -4.63996   36776.00000
     3.99414     -4.62832   36875.00000
    -3.99414      4.21329   38291.00000
    -3.99414      5.34513   38391.00000
    -3.99414      5.36153   38492.00000
    -3.99414      5.31722   38591.00000
    -3.99414      5.28272   38691.00000
    -3.99414      5.25671   38792.00000
    -3.99414      5.23491   38891.00000
    -3.99414      5.21580   38991.00000
    -3.99414      5.18498   39092.00000
    -3.99414      5.17315   39191.00000
    -0.00488      0.28734   40092.00000
    -0.00488     -0.06880   40193.00000
    -0.00488     -0.16479   40292.00000
    -0.00488     -0.15255   40392.00000
    -0.00488     -0.11435   40493.00000
    -0.00488     -0.10265   40592.00000
    -0.00488     -0.09220   40692.00000
    -0.00488     -0.08466   40793.00000
    -0.00488     -0.07750   40892.00000
    -0.00488     -0.07121   40992.00000
     4.49463     -4.90933   41671.00000
     4.49463     -5.40252   41773.00000
     4.49463     -5.52090   41872.00000
     4.49463     -5.45099   41972.00000
     4.49463     -5.42171   42073.00000
     4.49463     -5.39839   42172.00000
     4.49463     -5.37826   42272.00000
     4.49463     -5.36173   42373.00000
     4.49463     -5.34693   42472.00000
     4.49463     -5.33296   42572.00000
    -4.49463      5.32781   44055.00000
    -4.49463      5.95740   44155.00000
    -4.49463      6.12247   44256.00000
    -4.49463      6.07511   44355.00000
    -4.49463      6.04118   44456.00000
    -4.49463      6.01373   44555.00000
    -4.49463      5.99106   44655.00000
    -4.49463      5.97204   44756.00000
    -4.49463      5.95500   44855.00000
    -4.49463      5.92663   44955.00000
    -0.00488      0.30598   45874.00000
    -0.00488     -0.07091   45974.00000
    -0.00488     -0.17959   46074.00000
    -0.00488     -0.16873   46175.00000
    -0.00488     -0.12845   46274.00000
    -0.00488     -0.11462   46374.00000
    -0.00488     -0.10282   46473.00000
    -0.00488     -0.09306   46574.00000
    -0.00488     -0.08507   46675.00000
    -0.00488     -0.07907   46774.00000
     4.99512     -5.39869   47477.00000
     4.99512     -6.26880   47579.00000
     4.99512     -6.25329   47678.00000
     4.99512     -6.20618   47778.00000
     4.99512     -6.17084   47879.00000
     4.99512     -6.14496   47978.00000
     4.99512     -6.12232   48078.00000
     4.99512     -6.10114   48179.00000
     4.99512     -6.08331   48278.00000
     4.99512     -6.05540   48378.00000
    -4.99512      6.30706   49904.00000
    -4.99512      6.83740   50005.00000
    -4.99512      6.95435   50104.00000
    -4.99512      6.91142   50204.00000
    -4.99512      6.82957   50305.00000
    -4.99512      6.80263   50404.00000
    -4.99512      6.77832   50504.00000
    -4.99512      6.75617   50605.00000
    -4.99512      6.73790   50704.00000
    -4.99512      6.72196   50804.00000
    -0.00488      0.31117   51747.00000
    -0.00488     -0.07828   51849.00000
    -0.00488     -0.19442   51948.00000
    -0.00488     -0.15733   52048.00000
    -0.00488     -0.13723   52149.00000
    -0.00488     -0.12405   52248.00000
    -0.00488     -0.11178   52349.00000
    -0.00488     -0.10154   52448.00000
    -0.00488     -0.09333   52548.00000
    -0.00488     -0.08601   52649.00000
     5.49316     -6.69170   53362.00000
     5.49316     -7.03047   53464.00000
     5.49316     -7.05095   53563.00000
     5.49316     -6.99746   53663.00000
     5.49316     -6.95637   53764.00000
     5.49316     -6.92346   53863.00000
     5.49316     -6.89539   53963.00000
     5.49316     -6.85438   54064.00000
     5.49316     -6.83642   54163.00000
     5.49316     -6.81934   54263.00000
    -5.49072      7.05790   55856.00000
    -5.49072      7.65353   55957.00000
    -5.49072      7.79380   56057.00000
    -5.49072      7.74990   56158.00000
    -5.49072      7.66002   56257.00000
    -5.49072      7.62903   56357.00000
    -5.49072      7.60264   56458.00000
    -5.49072      7.57970   56557.00000
    -5.49072      7.55890   56658.00000
    -5.49072      7.54077   56757.00000
    -0.00488     -0.02555   57755.00000
    -0.00488     -0.19224   57856.00000
    -0.00488     -0.20318   57955.00000
    -0.00488     -0.17686   58055.00000
    -0.00488     -0.15498   58156.00000
    -0.00488     -0.13796   58255.00000
    -0.00488     -0.11386   58354.00000
    -0.00488     -0.10436   58456.00000
    -0.00488     -0.09757   58555.00000
    -0.00488     -0.09101   58655.00000
     5.99365     -7.56764   59408.00000
     5.99365     -7.86249   59508.00000
     5.99365     -7.86649   59609.00000
     5.99365     -7.80905   59708.00000
     5.99365     -7.76491   59808.00000
     5.99365     -7.73068   59909.00000
     5.99365     -7.70350   60008.00000
     5.99365     -7.65736   60108.00000
     5.99365     -7.63702   60209.00000
     5.99365     -7.61989   60308.00000
    -5.99121      7.68455   61932.00000
    -5.99121      8.67212   62032.00000
    -5.99121      8.65156   62133.00000
    -5.99121      8.59361   62232.00000
    -5.99121      8.54888   62333.00000
    -5.99121      8.51397   62432.00000
    -5.99121      8.48318   62532.00000
    -5.99121      8.45700   62633.00000
    -5.99121      8.41388   62732.00000
    -5.99121      8.39500   62832.00000
    -0.00488      0.19306   63824.00000
    -0.00488     -0.13907   63925.00000
    -0.00488     -0.22301   64024.00000
    -0.00488     -0.20399   64125.00000
    -0.00488     -0.15728   64224.00000
    -0.00488     -0.14088   64324.00000
    -0.00488     -0.12772   64425.00000
    -0.00488     -0.11654   64524.00000
    -0.00488     -0.10800   64624.00000
    -0.00488     -0.10017   64725.00000
     6.49414     -8.04460   65512.00000
     6.49414     -8.61087   65613.00000
     6.49414     -8.69988   65714.00000
     6.49414     -8.64237   65813.00000
     6.49414     -8.60079   65913.00000
     6.49414     -8.56605   66014.00000
     6.49414     -8.53712   66113.00000
     6.49414     -8.51310   66213.00000
     6.49414     -8.49151   66314.00000
     6.49414     -8.45407   66413.00000
    -6.49414      9.14249   68104.00000
    -6.49414      9.55252   68204.00000
    -6.49414      9.59775   68304.00000
    -6.49414      9.53583   68405.00000
    -6.49414      9.48145   68504.00000
    -6.49414      9.40675   68605.00000
    -6.49414      9.37701   68704.00000
    -6.49414      9.35156   68804.00000
    -6.49414      9.32781   68905.00000
    -6.49414      9.30693   69004.00000
    -0.00488      0.04909   70033.00000
    -0.00488     -0.19124   70133.00000
    -0.00488     -0.23460   70234.00000
    -0.00488     -0.20993   70333.00000
    -0.00488     -0.18362   70433.00000
    -0.00488     -0.14793   70534.00000
    -0.00488     -0.13534   70633.00000
    -0.00488     -0.12383   70733.00000
    -0.00488     -0.11392   70834.00000
    -0.00488     -0.10530   70933.00000
     6.99219     -8.82007   71722.00000
     6.99219     -9.48911   71823.00000
     6.99219     -9.65763   71923.00000
     6.99219     -9.54752   72024.00000
     6.99219     -9.50016   72123.00000
     6.99219     -9.46188   72223.00000
     6.99219     -9.42911   72324.00000
     6.99219     -9.40253   72423.00000
     6.99219     -9.37840   72523.00000
     6.99219     -9.35752   72624.00000
    -6.99219      9.62736   74355.00000
    -6.99219     10.37903   74457.00000
    -6.99219     10.58492   74556.00000
    -6.99219     10.47348   74656.00000
    -6.99219     10.42377   74757.00000
    -6.99219     10.38200   74856.00000
    -6.99219     10.34821   74956.00000
    -6.99219     10.31871   75057.00000
    -6.99219     10.29166   75156.00000
    -6.99219     10.26843   75256.00000
    -0.00488     -0.08445   76321.00000
    -0.00488     -0.23497   76423.00000
    -0.00488     -0.24057   76522.00000
    -0.00488     -0.21090   76622.00000
    -0.00488     -0.18681   76723.00000
    -0.00488     -0.16798   76822.00000
    -0.00488     -0.15220   76922.00000
    -0.00488     -0.12986   77023.00000
    -0.00488     -0.12097   77122.00000
    -0.00488     -0.11132   77222.00000
     7.49512     -9.71461   78035.00000
     7.49512    -10.42724   78135.00000
     7.49512    -10.61532   78235.00000
     7.49512    -10.49443   78336.00000
     7.49512    -10.44316   78435.00000
     7.49512    -10.40185   78535.00000
     7.49512    -10.36719   78636.00000
     7.49512    -10.33731   78735.00000
     7.49512    -10.31051   78835.00000
     7.49512    -10.28512   78936.00000
    -7.49268     11.07832   80710.00000
    -7.49268     11.56190   80812.00000
    -7.49268     11.61023   80911.00000
    -7.49268     11.53291   81011.00000
    -7.49268     11.47067   81112.00000
    -7.49268     11.42239   81211.00000
    -7.49268     11.34783   81311.00000
    -7.49268     11.31709   81412.00000
    -7.49268     11.28996   81511.00000
    -7.49268     11.26576   81611.00000
    -0.00488      0.18236   82695.00000
    -0.00488     -0.25467   82796.00000
    -0.00488     -0.24478   82896.00000
    -0.00488     -0.21431   82997.00000
    -0.00488     -0.18962   83096.00000
    -0.00488     -0.17130   83197.00000
    -0.00488     -0.15644   83296.00000
    -0.00488     -0.14453   83396.00000
    -0.00488     -0.12507   83497.00000
    -0.00488     -0.11735   83596.00000
     7.99316    -10.64742   84427.00000
     7.99316    -11.40720   84529.00000
     7.99316    -11.60749   84628.00000
     7.99316    -11.47887   84728.00000
     7.99316    -11.42295   84829.00000
     7.99316    -11.37691   84928.00000
     7.99316    -11.33866   85028.00000
     7.99316    -11.30532   85129.00000
     7.99316    -11.27688   85228.00000
     7.99316    -11.24994   85328.00000
    -7.99316     11.61861   87147.00000
    -7.99316     12.47559   87247.00000
    -7.99316     12.67050   87348.00000
    -7.99316     12.59240   87447.00000
    -7.99316     12.53391   87547.00000
    -7.99316     12.48599   87648.00000
    -7.99316     12.44435   87747.00000
    -7.99316     12.40872   87848.00000
    -7.99316     12.37663   87947.00000
    -7.99316     12.34899   88047.00000
    -0.00488      0.03796   89154.00000
    -0.00488     -0.21409   89254.00000
    -0.00488     -0.27091   89355.00000
    -0.00488     -0.21717   89455.00000
    -0.00488     -0.19483   89556.00000
    -0.00488     -0.17754   89655.00000
    -0.00488     -0.16206   89755.00000
    -0.00488     -0.14985   89856.00000
    -0.00488     -0.13961   89955.00000
    -0.00488     -0.12888   90055.00000
     8.49365    -11.72293   90905.00000
     8.49365    -12.47136   91006.00000
     8.49365    -12.65423   91105.00000
     8.49365    -12.51129   91205.00000
     8.49365    -12.45167   91306.00000
     8.49365    -12.40325   91405.00000
     8.49365    -12.36116   91505.00000
     8.49365    -12.32429   91606.00000
     8.49365    -12.29435   91705.00000
     8.49365    -12.26653   91805.00000
    -8.49365     13.31879   93661.00000
    -8.49365     13.78715   93761.00000
    -8.49365     13.80439   93861.00000
    -8.49365     13.71278   93962.00000
    -8.49365     13.64179   94061.00000
    -8.49365     13.58705   94162.00000
    -8.49365     13.54045   94261.00000
    -8.49365     13.46373   94361.00000
    -8.49365     13.43131   94462.00000
    -8.49365     13.40205   94561.00000
    -0.00488     -0.17970   95686.00000
    -0.00488     -0.32693   95788.00000
    -0.00488     -0.33385   95887.00000
    -0.00488     -0.30103   95987.00000
    -0.00488     -0.27312   96088.00000
    -0.00488     -0.25226   96187.00000
    -0.00488     -0.22039   96287.00000
    -0.00488     -0.20799   96388.00000
    -0.00488     -0.19834   96487.00000
    -0.00488     -0.18867   96587.00000
     8.99414    -12.98500   97474.00000
     8.99414    -13.63523   97576.00000
     8.99414    -13.77126   97675.00000
     8.99414    -13.61716   97775.00000
     8.99414    -13.55422   97876.00000
     8.99414    -13.50278   97975.00000
     8.99414    -13.45718   98075.00000
     8.99414    -13.41927   98176.00000
     8.99414    -13.38594   98275.00000
     8.99414    -13.35598   98375.00000
    -8.99414     14.29890  100267.00000
    -8.99414     14.95754  100368.00000
    -8.99414     15.07095  100468.00000
    -8.99414     14.98501  100569.00000
    -8.99414     14.83735  100668.00000
    -8.99414     14.78407  100768.00000
    -8.99414     14.73736  100869.00000
    -8.99414     14.69825  100968.00000
    -8.99414     14.66296  101068.00000
    -8.99414     14.63090  101169.00000
    -0.00488      0.01862  102293.00000
    -0.00488     -0.27674  102393.00000
    -0.00488     -0.35571  102495.00000
    -0.00488     -0.30095  102594.00000
    -0.00488     -0.27596  102694.00000
    -0.00488     -0.25537  102795.00000
    -0.00488     -0.23838  102894.00000
    -0.00488     -0.22384  102995.00000
    -0.00488     -0.21244  103094.00000
    -0.00488     -0.20175  103194.00000
     9.49219    -13.36238  104074.00000
     9.49219    -14.92600  104175.00000
     9.49219    -14.90906  104276.00000
     9.49219    -14.80565  104375.00000
     9.49219    -14.72738  104475.00000
     9.49219    -14.66630  104576.00000
     9.49219    -14.61324  104675.00000
     9.49219    -14.56789  104775.00000
     9.49219    -14.49240  104876.00000
     9.49219    -14.46020  104975.00000
    -9.49463     15.68150  106897.00000
    -9.49463     16.34410  106998.00000
    -9.49463     16.41059  107099.00000
    -9.49463     16.30231  107198.00000
    -9.49463     16.21597  107298.00000
    -9.49463     16.14724  107399.00000
    -9.49463     16.04088  107498.00000
    -9.49463     15.99822  107598.00000
    -9.49463     15.95984  107699.00000
    -9.49463     15.92404  107798.00000
    -0.00488     -0.04338  108954.00000
    -0.00488     -0.30324  109056.00000
    -0.00488     -0.36662  109155.00000
    -0.00488     -0.30805  109255.00000
    -0.00488     -0.28420  109356.00000
    -0.00488     -0.26358  109455.00000
    -0.00488     -0.24605  109555.00000
    -0.00488     -0.23192  109656.00000
    -0.00488     -0.21925  109755.00000
    -0.00488     -0.20763  109855.00000
     9.99268    -15.46190  110766.00000
     9.99268    -16.07561  110867.00000
     9.99268    -16.15074  110967.00000
     9.99268    -16.04595  111068.00000
     9.99268    -15.95226  111167.00000
     9.99268    -15.81797  111267.00000
     9.99268    -15.76564  111368.00000
     9.99268    -15.72036  111467.00000
     9.99268    -15.68003  111567.00000
     9.99268    -15.64485  111668.00000
    -9.99512     17.02562  113656.00000
    -9.99512     17.74039  113757.00000
    -9.99512     17.84005  113856.00000
    -9.99512     17.72915  113956.00000
    -9.99512     17.63152  114057.00000
    -9.99512     17.49479  114156.00000
    -9.99512     17.43941  114256.00000
    -9.99512     17.39049  114357.00000
    -9.99512     17.34899  114456.00000
    -9.99512     17.31125  114557.00000
    -0.00488     -0.25413  115748.00000
    -0.00488     -0.37143  115850.00000
    -0.00488     -0.36905  115949.00000
    -0.00488     -0.33555  116050.00000
    -0.00488     -0.30724  116149.00000
    -0.00488     -0.28358  116249.00000
    -0.00488     -0.24978  116350.00000
    -0.00488     -0.23643  116449.00000
    -0.00488     -0.22509  116549.00000
    -0.00488     -0.21496  116650.00000
    10.49316    -16.94499  117590.00000
    10.49316    -17.40547  117691.00000
    10.49316    -17.40793  117791.00000
    10.49316    -17.28955  117892.00000
    10.49316    -17.19197  117991.00000
    10.49316    -17.11668  118091.00000
    10.49316    -16.99619  118192.00000
    10.49316    -16.94905  118291.00000
    10.49316    -16.90617  118391.00000
    10.49316    -16.86759  118492.00000
   -10.49072     18.61561  120492.00000
   -10.49072     19.28326  120593.00000
   -10.49072     19.35275  120693.00000
   -10.49072     19.22853  120794.00000
   -10.49072     19.12271  120893.00000
   -10.49072     18.97696  120993.00000
   -10.49072     18.91739  121094.00000
   -10.49072     18.86569  121193.00000
   -10.49072     18.82117  121293.00000
   -10.49072     18.78137  121394.00000
    -0.00488     -0.22879  122567.00000
    -0.00488     -0.38437  122669.00000
    -0.00488     -0.38877  122768.00000
    -0.00488     -0.35103  122868.00000
    -0.00488     -0.32048  122969.00000
    -0.00488     -0.29633  123068.00000
    -0.00488     -0.27550  123168.00000
    -0.00488     -0.24575  123269.00000
    -0.00488     -0.23281  123368.00000
    -0.00488     -0.22160  123468.00000
    10.99121    -18.26937  124416.00000
    10.99121    -18.77355  124516.00000
    10.99121    -18.76267  124616.00000
    10.99121    -18.62735  124717.00000
    10.99121    -18.52183  124816.00000
    10.99121    -18.43743  124916.00000
    10.99121    -18.31027  125017.00000
    10.99121    -18.25737  125116.00000
    10.99121    -18.20928  125216.00000
    10.99121    -18.16801  125317.00000
   -10.99121     19.22618  127372.00000
   -10.99121     21.01346  127472.00000
   -10.99121     20.95460  127573.00000
   -10.99121     20.81876  127672.00000
   -10.99121     20.71381  127772.00000
   -10.99121     20.63009  127873.00000
   -10.99121     20.56077  127972.00000
   -10.99121     20.50179  128072.00000
   -10.99121     20.40062  128173.00000
   -10.99121     20.35685  128272.00000
    -0.00488     -0.29622  129502.00000
    -0.00488     -0.40369  129603.00000
    -0.00488     -0.39391  129704.00000
    -0.00488     -0.35706  129803.00000
    -0.00488     -0.32604  129903.00000
    -0.00488     -0.30219  130004.00000
    -0.00488     -0.26658  130103.00000
    -0.00488     -0.25313  130203.00000
    -0.00488     -0.24035  130304.00000
    -0.00488     -0.22930  130403.00000
    10.99121    -18.00075  131350.00000
    10.99121    -18.64080  131450.00000
    10.99121    -18.69394  131551.00000
    10.99121    -18.56162  131650.00000
    10.99121    -18.45142  131750.00000
    10.99121    -18.29500  131851.00000
    10.99121    -18.23330  131950.00000
    10.99121    -18.18059  132051.00000
    10.99121    -18.13467  132150.00000
    10.99121    -18.09244  132250.00000
   -10.99365     20.34316  134306.00000
   -10.99365     20.91359  134407.00000
   -10.99365     20.90505  134506.00000
   -10.99365     20.76692  134606.00000
   -10.99365     20.66140  134707.00000
   -10.99365     20.57676  134806.00000
   -10.99365     20.50660  134906.00000
   -10.99365     20.39384  135007.00000
   -10.99365     20.34405  135106.00000
   -10.99365     20.30074  135206.00000
    -0.00488     -0.26504  136430.00000
    -0.00488     -0.39863  136532.00000
    -0.00488     -0.40352  136631.00000
    -0.00488     -0.36735  136731.00000
    -0.00488     -0.33504  136832.00000
    -0.00488     -0.29163  136931.00000
    -0.00488     -0.27520  137031.00000
    -0.00488     -0.25991  137132.00000
    -0.00488     -0.24654  137231.00000
    -0.00488     -0.23565  137331.00000
    10.49316    -16.59390  138272.00000
    10.49316    -17.14353  138374.00000
    10.49316    -17.18846  138473.00000
    10.49316    -17.07234  138573.00000
    10.49316    -16.97306  138674.00000
    10.49316    -16.83142  138773.00000
    10.49316    -16.77636  138873.00000
    10.49316    -16.72895  138974.00000
    10.49316    -16.68748  139073.00000
    10.49316    -16.65069  139173.00000
   -10.49316     18.26100  141174.00000
   -10.49316     19.03791  141276.00000
   -10.49316     19.16756  141375.00000
   -10.49316     19.05344  141475.00000
   -10.49316     18.86579  141576.00000
   -10.49316     18.79912  141675.00000
   -10.49316     18.74023  141775.00000
   -10.49316     18.68958  141876.00000
   -10.49316     18.64497  141975.00000
   -10.49316     18.60537  142075.00000
    -0.00488     -0.21109  143250.00000
    -0.00488     -0.38793  143351.00000
    -0.00488     -0.40469  143452.00000
    -0.00488     -0.36765  143551.00000
    -0.00488     -0.33509  143651.00000
    -0.00488     -0.30932  143752.00000
    -0.00488     -0.26950  143851.00000
    -0.00488     -0.25540  143951.00000
    -0.00488     -0.24351  144052.00000
    -0.00488     -0.23244  144151.00000
     9.99268    -14.53031  145061.00000
     9.99268    -15.84690  145163.00000
     9.99268    -15.79627  145262.00000
     9.99268    -15.68724  145363.00000
     9.99268    -15.60547  145462.00000
     9.99268    -15.54120  145562.00000
     9.99268    -15.48654  145663.00000
     9.99268    -15.43975  145762.00000
     9.99268    -15.36246  145862.00000
     9.99268    -15.32966  145963.00000
    -9.99268     16.13560  147945.00000
    -9.99268     17.24036  148045.00000
    -9.99268     17.51530  148146.00000
    -9.99268     17.40418  148245.00000
    -9.99268     17.32317  148345.00000
    -9.99268     17.25681  148446.00000
    -9.99268     17.19995  148545.00000
    -9.99268     17.15283  148645.00000
    -9.99268     17.11088  148746.00000
    -9.99268     17.03821  148845.00000
    -0.00488     -0.15490  150038.00000
    -0.00488     -0.35625  150138.00000
    -0.00488     -0.39623  150239.00000
    -0.00488     -0.33334  150338.00000
    -0.00488     -0.30748  150438.00000
    -0.00488     -0.28644  150539.00000
    -0.00488     -0.26955  150638.00000
    -0.00488     -0.25570  150739.00000
    -0.00488     -0.24310  150838.00000
    -0.00488     -0.23146  150938.00000
     9.49463    -14.11203  151819.00000
     9.49463    -14.56805  151919.00000
     9.49463    -14.56575  152020.00000
     9.49463    -14.46109  152119.00000
     9.49463    -14.38110  152219.00000
     9.49463    -14.31848  152320.00000
     9.49463    -14.26656  152419.00000
     9.49463    -14.18170  152519.00000
     9.49463    -14.14585  152620.00000
     9.49463    -14.11592  152719.00000
    -9.49219     15.30836  154641.00000
    -9.49219     16.01381  154741.00000
    -9.49219     16.10531  154842.00000
    -9.49219     16.00055  154941.00000
    -9.49219     15.91107  155041.00000
    -9.49219     15.84213  155142.00000
    -9.49219     15.73901  155241.00000
    -9.49219     15.69679  155341.00000
    -9.49219     15.65943  155442.00000
    -9.49219     15.62633  155541.00000
    -0.00488     -0.05848  156697.00000
    -0.00488     -0.32148  156798.00000
    -0.00488     -0.36422  156897.00000
    -0.00488     -0.33118  156997.00000
    -0.00488     -0.30419  157098.00000
    -0.00488     -0.28147  157197.00000
    -0.00488     -0.26431  157297.00000
    -0.00488     -0.24970  157398.00000
    -0.00488     -0.23795  157497.00000
    -0.00488     -0.21731  157597.00000
     8.99414    -13.03552  158483.00000
     8.99414    -13.38242  158584.00000
     8.99414    -13.37497  158685.00000
     8.99414    -13.28322  158784.00000
     8.99414    -13.21209  158884.00000
     8.99414    -13.15628  158985.00000
     8.99414    -13.10787  159084.00000
     8.99414    -13.03204  159184.00000
     8.99414    -13.00113  159285.00000
     8.99414    -12.97344  159384.00000
    -8.99414     14.38716  161275.00000
    -8.99414     14.72813  161377.00000
    -8.99414     14.70346  161476.00000
    -8.99414     14.60815  161577.00000
    -8.99414     14.53651  161676.00000
    -8.99414     14.48039  161776.00000
    -8.99414     14.43269  161877.00000
    -8.99414     14.35402  161976.00000
    -8.99414     14.32149  162076.00000
    -8.99414     14.29121  162177.00000
    -0.00488     -0.20150  163302.00000
    -0.00488     -0.36478  163402.00000
    -0.00488     -0.37378  163503.00000
    -0.00488     -0.33923  163602.00000
    -0.00488     -0.30867  163702.00000
    -0.00488     -0.28625  163803.00000
    -0.00488     -0.26753  163902.00000
    -0.00488     -0.23865  164002.00000
    -0.00488     -0.22727  164103.00000
    -0.00488     -0.21660  164202.00000
     8.49365    -11.85165  165052.00000
     8.49365    -12.27223  165153.00000
     8.49365    -12.28533  165254.00000
     8.49365    -12.19756  165353.00000
     8.49365    -12.13040  165453.00000
     8.49365    -12.07731  165554.00000
     8.49365    -12.03350  165653.00000
     8.49365    -11.96223  165753.00000
     8.49365    -11.93365  165854.00000
     8.49365    -11.90768  165953.00000
    -8.49121     12.48661  167808.00000
    -8.49121     13.28715  167909.00000
    -8.49121     13.48293  168009.00000
    -8.49121     13.33081  168110.00000
    -8.49121     13.26981  168209.00000
    -8.49121     13.21972  168309.00000
    -8.49121     13.17728  168410.00000
    -8.49121     13.13984  168509.00000
    -8.49121     13.10842  168609.00000
    -8.49121     13.08073  168710.00000
    -0.00488     -0.05335  169835.00000
    -0.00488     -0.30727  169935.00000
    -0.00488     -0.34298  170036.00000
    -0.00488     -0.31056  170135.00000
    -0.00488     -0.28547  170235.00000
    -0.00488     -0.26588  170336.00000
    -0.00488     -0.24967  170435.00000
    -0.00488     -0.23538  170536.00000
    -0.00488     -0.22301  170635.00000
    -0.00488     -0.20504  170735.00000
     7.99316    -10.50615  171567.00000
     7.99316    -11.13910  171668.00000
     7.99316    -11.26874  171768.00000
     7.99316    -11.19850  171869.00000
     7.99316    -11.07186  171968.00000
     7.99316    -11.02834  172068.00000
     7.99316    -10.99051  172169.00000
     7.99316    -10.95837  172268.00000
     7.99316    -10.93154  172368.00000
     7.99316    -10.90647  172469.00000
    -7.99316     11.47072  174280.00000
    -7.99316     12.15681  174381.00000
    -7.99316     12.30026  174480.00000
    -7.99316     12.22872  174580.00000
    -7.99316     12.10010  174681.00000
    -7.99316     12.05358  174780.00000
    -7.99316     12.01508  174880.00000
    -7.99316     11.98264  174981.00000
    -7.99316     11.95397  175080.00000
    -7.99316     11.92707  175180.00000
    -0.00488     -0.14420  176288.00000
    -0.00488     -0.32758  176389.00000
    -0.00488     -0.35057  176488.00000
    -0.00488     -0.32010  176588.00000
    -0.00488     -0.29149  176689.00000
    -0.00488     -0.24910  176788.00000
    -0.00488     -0.23422  176888.00000
    -0.00488     -0.22352  176989.00000
    -0.00488     -0.21204  177088.00000
    -0.00488     -0.20247  177188.00000
     7.49512     -9.07718  178002.00000
     7.49512    -10.26766  178103.00000
     7.49512    -10.25316  178203.00000
     7.49512    -10.17835  178304.00000
     7.49512    -10.12310  178403.00000
     7.49512    -10.08018  178503.00000
     7.49512    -10.04287  178604.00000
     7.49512    -10.01070  178703.00000
     7.49512     -9.95953  178803.00000
     7.49512     -9.93891  178904.00000
    -7.49512     10.40848  180678.00000
    -7.49512     11.06522  180780.00000
    -7.49512     11.20838  180879.00000
    -7.49512     11.14384  180979.00000
    -7.49512     11.02300  181080.00000
    -7.49512     10.98177  181179.00000
    -7.49512     10.94584  181279.00000
    -7.49512     10.91499  181380.00000
    -7.49512     10.88843  181479.00000
    -7.49512     10.86328  181579.00000
    -0.00488     -0.17940  182663.00000
    -0.00488     -0.32704  182763.00000
    -0.00488     -0.33515  182863.00000
    -0.00488     -0.30281  182964.00000
    -0.00488     -0.27587  183063.00000
    -0.00488     -0.25516  183163.00000
    -0.00488     -0.22506  183264.00000
    -0.00488     -0.21360  183363.00000
    -0.00488     -0.20315  183464.00000
    -0.00488     -0.19396  183563.00000
     6.99463     -8.66384  184352.00000
     6.99463     -9.23009  184453.00000
     6.99463     -9.34428  184552.00000
     6.99463     -9.28458  184652.00000
     6.99463     -9.17913  184753.00000
     6.99463     -9.14188  184852.00000
     6.99463     -9.11068  184952.00000
     6.99463     -9.08366  185053.00000
     6.99463     -9.06073  185152.00000
     6.99463     -9.03884  185252.00000
    -6.99219      9.39881  186985.00000
    -6.99219     10.04542  187086.00000
    -6.99219     10.19028  187187.00000
    -6.99219     10.13038  187286.00000
    -6.99219     10.01735  187386.00000
    -6.99219      9.97972  187487.00000
    -6.99219      9.94573  187586.00000
    -6.99219      9.91723  187686.00000
    -6.99219      9.89173  187786.00000
    -6.99219      9.86885  187886.00000
    -0.00488     -0.21452  188951.00000
    -0.00488     -0.32442  189053.00000
    -0.00488     -0.31626  189152.00000
    -0.00488     -0.28552  189252.00000
    -0.00488     -0.26188  189353.00000
    -0.00488     -0.24327  189452.00000
    -0.00488     -0.22692  189552.00000
    -0.00488     -0.20280  189653.00000
    -0.00488     -0.19288  189752.00000
    -0.00488     -0.18456  189852.00000
     6.49170     -8.09063  190635.00000
     6.49170     -8.41701  190736.00000
     6.49170     -8.43543  190836.00000
     6.49170     -8.37494  190937.00000
     6.49170     -8.32637  191036.00000
     6.49170     -8.28738  191136.00000
     6.49170     -8.22890  191237.00000
     6.49170     -8.20585  191336.00000
     6.49170     -8.18473  191436.00000
     6.49170     -8.16630  191537.00000
    -6.49414      8.39446  193226.00000
    -6.49414      9.04912  193327.00000
    -6.49414      9.18668  193426.00000
    -6.49414      9.12628  193526.00000
    -6.49414      9.07940  193627.00000
    -6.49414      9.04242  193726.00000
    -6.49414      9.01141  193826.00000
    -6.49414      8.98477  193927.00000
    -6.49414      8.96181  194026.00000
    -6.49414      8.92058  194126.00000
    -0.00488      0.15032  195156.00000
    -0.00488     -0.20350  195256.00000
    -0.00488     -0.30024  195356.00000
    -0.00488     -0.27012  195457.00000
    -0.00488     -0.24705  195556.00000
    -0.00488     -0.23014  195656.00000
    -0.00488     -0.21663  195757.00000
    -0.00488     -0.20472  195856.00000
    -0.00488     -0.19315  195956.00000
    -0.00488     -0.17686  196057.00000
     5.99365     -6.85703  196808.00000
     5.99365     -7.45399  196909.00000
     5.99365     -7.60973  197008.00000
     5.99365     -7.51639  197108.00000
     5.99365     -7.47733  197209.00000
     5.99365     -7.44534  197308.00000
     5.99365     -7.41879  197408.00000
     5.99365     -7.39531  197509.00000
     5.99365     -7.37440  197608.00000
     5.99365     -7.35665  197708.00000
    -5.99365      7.69792  199331.00000
    -5.99365      8.21951  199432.00000
    -5.99365      8.32295  199531.00000
    -5.99365      8.27167  199631.00000
    -5.99365      8.17842  199732.00000
    -5.99365      8.14651  199831.00000
    -5.99365      8.11842  199931.00000
    -5.99365      8.09426  200032.00000
    -5.99365      8.07376  200131.00000
    -5.99365      8.05325  200232.00000
    -0.00488     -0.07110  201228.00000
    -0.00488     -0.27328  201329.00000
    -0.00488     -0.29592  201430.00000
    -0.00488     -0.26774  201529.00000
    -0.00488     -0.24351  201629.00000
    -0.00488     -0.22428  201730.00000
    -0.00488     -0.19750  201829.00000
    -0.00488     -0.18748  201929.00000
    -0.00488     -0.17775  202030.00000
    -0.00488     -0.16906  202129.00000
     5.49072     -6.05757  202851.00000
     5.49072     -6.65344  202951.00000
     5.49072     -6.81232  203052.00000
     5.49072     -6.72682  203151.00000
     5.49072     -6.69059  203251.00000
     5.49072     -6.66141  203352.00000
     5.49072     -6.63675  203451.00000
     5.49072     -6.61613  203551.00000
     5.49072     -6.59706  203652.00000
     5.49072     -6.57980  203751.00000
    -5.49072      6.34118  205332.00000
    -5.49072      7.44862  205432.00000
    -5.49072      7.44765  205533.00000
    -5.49072      7.38965  205632.00000
    -5.49072      7.34680  205732.00000
    -5.49072      7.31482  205833.00000
    -5.49072      7.28737  205932.00000
    -5.49072      7.26287  206032.00000
    -5.49072      7.22367  206133.00000
    -5.49072      7.20643  206232.00000
    -0.00488      0.04412  207230.00000
    -0.00488     -0.22390  207331.00000
    -0.00488     -0.28347  207431.00000
    -0.00488     -0.23578  207532.00000
    -0.00488     -0.21660  207631.00000
    -0.00488     -0.20193  207731.00000
    -0.00488     -0.18943  207832.00000
    -0.00488     -0.17892  207931.00000
    -0.00488     -0.16946  208031.00000
    -0.00488     -0.16168  208132.00000
     4.99512     -5.11451  208834.00000
     4.99512     -6.03668  208934.00000
     4.99512     -6.03074  209035.00000
     4.99512     -5.98230  209134.00000
     4.99512     -5.94726  209235.00000
     4.99512     -5.92008  209334.00000
     4.99512     -5.89534  209434.00000
     4.99512     -5.87527  209535.00000
     4.99512     -5.84201  209634.00000
     4.99512     -5.82869  209734.00000
    -4.99512      5.95557  211259.00000
    -4.99512      6.51657  211360.00000
    -4.99512      6.65424  211461.00000
    -4.99512      6.56452  211560.00000
    -4.99512      6.52816  211660.00000
    -4.99512      6.50071  211761.00000
    -4.99512      6.47729  211860.00000
    -4.99512      6.45635  211960.00000
    -4.99512      6.43847  212061.00000
    -4.99512      6.42293  212160.00000
    -0.00488      0.25789  213128.00000
    -0.00488     -0.25923  213229.00000
    -0.00488     -0.25615  213330.00000
    -0.00488     -0.23119  213429.00000
    -0.00488     -0.21239  213529.00000
    -0.00488     -0.19526  213630.00000
    -0.00488     -0.18173  213729.00000
    -0.00488     -0.17173  213829.00000
    -0.00488     -0.15555  213930.00000
    -0.00488     -0.14844  214029.00000
     4.49463     -4.38442  214709.00000
     4.49463     -5.30254  214809.00000
     4.49463     -5.30827  214910.00000
     4.49463     -5.26407  215009.00000
     4.49463     -5.23041  215109.00000
     4.49463     -5.20502  215210.00000
     4.49463     -5.18335  215309.00000
     4.49463     -5.14836  215409.00000
     4.49463     -5.13459  215510.00000
     4.49463     -5.12297  215609.00000
    -4.49463      5.49755  217092.00000
    -4.49463      5.83392  217192.00000
    -4.49463      5.86704  217292.00000
    -4.49463      5.81911  217393.00000
    -4.49463      5.78021  217492.00000
    -4.49463      5.75146  217592.00000
    -4.49463      5.70643  217693.00000
    -4.49463      5.68947  217792.00000
    -4.49463      5.67382  217892.00000
    -4.49463      5.66040  217993.00000
    -0.00488      0.45313  218910.00000
    -0.00488     -0.22979  219011.00000
    -0.00488     -0.24478  219110.00000
    -0.00488     -0.21976  219210.00000
    -0.00488     -0.19991  219311.00000
    -0.00488     -0.18335  219410.00000
    -0.00488     -0.17222  219510.00000
    -0.00488     -0.16203  219611.00000
    -0.00488     -0.14515  219710.00000
    -0.00488     -0.13872  219810.00000
     3.99170     -3.98806  220447.00000
     3.99170     -4.49443  220548.00000
     3.99170     -4.62391  220647.00000
     3.99170     -4.59479  220747.00000
     3.99170     -4.53112  220848.00000
     3.99170     -4.50978  220947.00000
     3.99170     -4.49135  221047.00000
     3.99170     -4.47560  221148.00000
     3.99170     -4.46131  221247.00000
     3.99170     -4.45072  221347.00000
    -3.99414      4.05236  222763.00000
    -3.99414      5.10982  222864.00000
    -3.99414      5.11914  222964.00000
    -3.99414      5.07314  223065.00000
    -3.99414      5.03972  223164.00000
    -3.99414      5.01430  223264.00000
    -3.99414      4.99236  223365.00000
    -3.99414      4.97345  223464.00000
    -3.99414      4.94473  223564.00000
    -3.99414      4.93268  223665.00000
    -0.00488      0.16783  224564.00000
    -0.00488     -0.15128  224665.00000
    -0.00488     -0.22992  224766.00000
    -0.00488     -0.21420  224865.00000
    -0.00488     -0.17522  224965.00000
    -0.00488     -0.16252  225066.00000
    -0.00488     -0.15358  225165.00000
    -0.00488     -0.14526  225265.00000
    -0.00488     -0.13785  225366.00000
    -0.00488     -0.13151  225465.00000
     3.49365     -3.16960  226077.00000
     3.49365     -3.75732  226178.00000
     3.49365     -3.94280  226277.00000
     3.49365     -3.90666  226377.00000
     3.49365     -3.88078  226478.00000
     3.49365     -3.86033  226578.00000
     3.49365     -3.84404  226677.00000
     3.49365     -3.83018  226778.00000
     3.49365     -3.81780  226877.00000
     3.49365     -3.79611  226977.00000
    -3.49121      3.59983  228351.00000
    -3.49121      4.21140  228452.00000
    -3.49121      4.38724  228552.00000
    -3.49121      4.34818  228653.00000
    -3.49121      4.32022  228752.00000
    -3.49121      4.29828  228852.00000
    -3.49121      4.27951  228953.00000
    -3.49121      4.26389  229052.00000
    -3.49121      4.25003  229152.00000
    -3.49121      4.22766  229253.00000
    -0.00488     -0.01396  230134.00000
    -0.00488     -0.19189  230235.00000
    -0.00488     -0.20736  230334.00000
    -0.00488     -0.18389  230434.00000
    -0.00488     -0.16668  230535.00000
    -0.00488     -0.15325  230634.00000
    -0.00488     -0.14318  230734.00000
    -0.00488     -0.12778  230835.00000
    -0.00488     -0.12297  230934.00000
    -0.00488     -0.11694  231034.00000
     2.99316     -2.38245  231610.00000
     2.99316     -3.29949  231711.00000
     2.99316     -3.31291  231812.00000
     2.99316     -3.27863  231911.00000
     2.99316     -3.25564  232011.00000
     2.99316     -3.23743  232112.00000
     2.99316     -3.22257  232211.00000
     2.99316     -3.21007  232311.00000
     2.99316     -3.18905  232412.00000
     2.99316     -3.18062  232511.00000
    -2.99316      2.65313  233804.00000
    -2.99316      3.67917  233906.00000
    -2.99316      3.70049  234005.00000
    -2.99316      3.66429  234105.00000
    -2.99316      3.63643  234206.00000
    -2.99316      3.61474  234305.00000
    -2.99316      3.59791  234405.00000
    -2.99316      3.58435  234506.00000
    -2.99316      3.56144  234605.00000
    -2.99316      3.55163  234706.00000
    -0.00488      0.44276  235544.00000
    -0.00488     -0.02196  235645.00000
    -0.00488     -0.18278  235744.00000
    -0.00488     -0.16192  235844.00000
    -0.00488     -0.14663  235945.00000
    -0.00488     -0.13567  236044.00000
    -0.00488     -0.12445  236144.00000
    -0.00488     -0.11800  236245.00000
    -0.00488     -0.11197  236344.00000
    -0.00488     -0.10236  236444.00000
     2.49268     -2.26666  236977.00000
     2.49268     -2.63948  237077.00000
     2.49268     -2.70715  237177.00000
     2.49268     -2.68046  237278.00000
     2.49268     -2.65677  237378.00000
     2.49268     -2.63975  237477.00000
     2.49268     -2.61349  237578.00000
     2.49268     -2.60371  237677.00000
     2.49268     -2.59512  237778.00000
     2.49268     -2.58604  237878.00000
    -2.49268      2.52100  239085.00000
    -2.49268      2.95214  239186.00000
    -2.49268      3.03758  239285.00000
    -2.49268      3.00930  239385.00000
    -2.49268      2.98258  239486.00000
    -2.49268      2.96254  239585.00000
    -2.49268      2.93431  239685.00000
    -2.49268      2.92301  239786.00000
    -2.49268      2.91288  239885.00000
    -2.49268      2.90388  239985.00000
    -0.00488      0.41307  240782.00000
    -0.00488     -0.02658  240882.00000
    -0.00488     -0.15749  240983.00000
    -0.00488     -0.13440  241082.00000
    -0.00488     -0.12100  241182.00000
    -0.00488     -0.11105  241283.00000
    -0.00488     -0.10436  241382.00000
    -0.00488     -0.09730  241482.00000
    -0.00488     -0.09098  241583.00000
    -0.00488     -0.08642  241682.00000
     1.99463     -1.47247  242185.00000
     1.99463     -1.96077  242285.00000
     1.99463     -2.11892  242386.00000
     1.99463     -2.08874  242485.00000
     1.99463     -2.07205  242585.00000
     1.99463     -2.05756  242686.00000
     1.99463     -2.04687  242785.00000
     1.99463     -2.03849  242885.00000
     1.99463     -2.03041  242986.00000
     1.99463     -2.02447  243085.00000
    -1.99463      1.44365  244232.00000
    -1.99463      2.36439  244333.00000
    -1.99463      2.39573  244434.00000
    -1.99463      2.36931  244533.00000
    -1.99463      2.34877  244633.00000
    -1.99463      2.33359  244734.00000
    -1.99463      2.32100  244833.00000
    -1.99463      2.30958  244933.00000
    -1.99463      2.29385  245034.00000
    -1.99463      2.28621  245133.00000
    -0.00488      0.12325  245899.00000
    -0.00488     -0.10384  246000.00000
    -0.00488     -0.13302  246101.00000
    -0.00488     -0.11713  246200.00000
    -0.00488     -0.10300  246300.00000
    -0.00488     -0.09382  246401.00000
    -0.00488     -0.08661  246500.00000
    -0.00488     -0.07453  246600.00000
    -0.00488     -0.07126  246701.00000
    -0.00488     -0.06829  246800.00000
     1.49414     -0.99613  247259.00000
     1.49414     -1.42924  247360.00000
     1.49414     -1.56507  247460.00000
     1.49414     -1.55808  247561.00000
     1.49414     -1.52590  247660.00000
     1.49414     -1.51539  247760.00000
     1.49414     -1.50621  247861.00000
     1.49414     -1.49859  247960.00000
     1.49414     -1.49375  248061.00000
     1.49414     -1.48870  248160.00000
    -1.49414      1.00154  249222.00000
    -1.49414      1.77618  249323.00000
    -1.49414      1.79612  249423.00000
    -1.49414      1.77491  249524.00000
    -1.49414      1.75941  249623.00000
    -1.49414      1.74666  249723.00000
    -1.49414      1.73628  249824.00000
    -1.49414      1.72766  249923.00000
    -1.49414      1.71426  250024.00000
    -1.49414      1.70878  250123.00000
    -0.00488      0.42925  250840.00000
    -0.00488      0.00984  250941.00000
    -0.00488     -0.09890  251041.00000
    -0.00488     -0.09352  251142.00000
    -0.00488     -0.07993  251241.00000
    -0.00488     -0.06526  251341.00000
    -0.00488     -0.05892  251442.00000
    -0.00488     -0.05446  251541.00000
    -0.00488     -0.05167  251641.00000
    -0.00488     -0.04843  251742.00000
     0.99365     -0.61251  252139.00000
     0.99365     -0.95612  252240.00000
     0.99365     -1.04746  252340.00000
     0.99365     -1.03433  252440.00000
     0.99365     -1.02001  252541.00000
     0.99365     -1.01031  252640.00000
     0.99365     -0.99808  252740.00000
     0.99365     -0.99292  252841.00000
     0.99365     -0.98811  252940.00000
     0.99365     -0.98368  253040.00000
    -0.99365      0.78748  253980.00000
    -0.99365      1.14073  254082.00000
    -0.99365      1.23761  254181.00000
    -0.99365      1.22634  254281.00000
    -0.99365      1.21164  254382.00000
    -0.99365      1.20143  254481.00000
    -0.99365      1.18722  254581.00000
    -0.99365      1.18082  254682.00000
    -0.99365      1.17536  254781.00000
    -0.99365      1.17061  254881.00000
    -0.00488      0.35898  255550.00000
    -0.00488      0.01327  255650.00000
    -0.00488     -0.05981  255751.00000
    -0.00488     -0.05089  255850.00000
    -0.00488     -0.04203  255950.00000
    -0.00488     -0.03576  256051.00000
    -0.00488     -0.02579  256150.00000
    -0.00488     -0.02288  256250.00000
    -0.00488     -0.02015  256351.00000
    -0.00488     -0.01828  256450.00000
     0.49072     -0.18616  256788.00000
     0.49072     -0.43991  256888.00000
     0.49072     -0.53844  256989.00000
     0.49072     -0.53476  257088.00000
     0.49072     -0.52455  257188.00000
     0.49072     -0.51818  257289.00000
     0.49072     -0.51002  257388.00000
     0.49072     -0.50694  257488.00000
     0.49072     -0.50343  257589.00000
     0.49072     -0.50108  257688.00000
    -0.49072      0.19430  258506.00000
    -0.49072      0.65159  258608.00000
    -0.49072      0.69384  258707.00000
    -0.49072      0.68158  258807.00000
    -0.49072      0.67363  258908.00000
    -0.49072      0.66742  259007.00000
    -0.49072      0.66275  259107.00000
    -0.49072      0.65902  259208.00000
    -0.49072      0.65307  259307.00000
    -0.49072      0.65048  259407.00000
    -0.00488      0.36520  260010.00000
    -0.00488      0.07967  260110.00000
    -0.00488      0.00160  260210.00000
    -0.00488      0.00454  260311.00000
    -0.00488      0.00997  260410.00000
    -0.00488      0.01422  260510.00000
    -0.00488      0.01719  260611.00000
    -0.00488      0.02105  260710.00000
    -0.00488      0.02232  260810.00000
    -0.00488      0.02354  260911.00000