# Acquired on 07/08/2024 15:08:45 
# SPIDER: CNT0771454CT-R 2024-08-07
# TRACKING MEASUREMENT

  # pos [mm]    force [N]     time [ms]
     0.49561     -0.07798     236.00000
     0.49561     -0.28657     338.00000
     0.49561     -0.40697     437.00000
     0.49561     -0.39844     537.00000
     0.49561     -0.38885     638.00000
     0.49561     -0.38139     737.00000
     0.49561     -0.37491     837.00000
     0.49561     -0.37126     938.00000
     0.49561     -0.36721    1037.00000
     0.49561     -0.36353    1137.00000
    -0.49561      0.28651    1943.00000
    -0.49561      0.45130    2044.00000
    -0.49561      0.49015    2143.00000
    -0.49561      0.47626    2243.00000
    -0.49561      0.46484    2344.00000
    -0.49561      0.45798    2443.00000
    -0.49561      0.45268    2543.00000
    -0.49561      0.44347    2644.00000
    -0.49561      0.44095    2743.00000
    -0.49561      0.43890    2843.00000
    -0.00488      0.26247    3438.00000
    -0.00488      0.06144    3540.00000
    -0.00488     -0.00218    3639.00000
    -0.00488      0.00282    3739.00000
    -0.00488      0.00887    3840.00000
    -0.00488      0.01484    3939.00000
    -0.00488      0.02214    4039.00000
    -0.00488      0.02487    4140.00000
    -0.00488      0.02627    4239.00000
    -0.00488      0.02573    4339.00000
     0.99365     -0.19437    4738.00000
     0.99365     -0.76771    4839.00000
     0.99365     -0.78862    4940.00000
     0.99365     -0.76547    5039.00000
     0.99365     -0.75077    5139.00000
     0.99365     -0.74040    5240.00000
     0.99365     -0.73070    5339.00000
     0.99365     -0.72295    5439.00000
     0.99365     -0.71193    5540.00000
     0.99365     -0.70752    5639.00000
    -0.99609      0.67704    6585.00000
    -0.99609      0.86375    6686.00000
    -0.99609      0.88687    6787.00000
    -0.99609      0.86518    6886.00000
    -0.99609      0.84872    6986.00000
    -0.99609      0.83719    7087.00000
    -0.99609      0.82987    7186.00000
    -0.99609      0.81709    7285.00000
    -0.99609      0.81234    7386.00000
    -0.99609      0.80855    7486.00000
    -0.00488      0.53726    8149.00000
    -0.00488      0.00784    8249.00000
    -0.00488     -0.01350    8349.00000
    -0.00488      0.00001    8450.00000
    -0.00488      0.01128    8549.00000
    -0.00488      0.01881    8648.00000
    -0.00488      0.02249    8750.00000
    -0.00488      0.02559    8849.00000
    -0.00488      0.03178    8949.00000
    -0.00488      0.03532    9050.00000
     1.49414     -0.81885    9509.00000
     1.49414     -1.12040    9610.00000
     1.49414     -1.18137    9710.00000
     1.49414     -1.15589    9811.00000
     1.49414     -1.13461    9910.00000
     1.49414     -1.10627   10010.00000
     1.49414     -1.09703   10111.00000
     1.49414     -1.08922   10210.00000
     1.49414     -1.08163   10310.00000
     1.49414     -1.07579   10411.00000
    -1.49658      0.86431   11460.00000
    -1.49658      1.17985   11561.00000
    -1.49658      1.27600   11660.00000
    -1.49658      1.23723   11760.00000
    -1.49658      1.21986   11861.00000
    -1.49658      1.20708   11960.00000
    -1.49658      1.19776   12059.00000
    -1.49658      1.18977   12161.00000
    -1.49658      1.18139   12260.00000
    -1.49658      1.17529   12360.00000
    -0.00488      0.20952   13072.00000
    -0.00488      0.00593   13172.00000
    -0.00488     -0.02182   13273.00000
    -0.00488     -0.00488   13372.00000
    -0.00488      0.00849   13472.00000
    -0.00488      0.01600   13573.00000
    -0.00488      0.02443   13672.00000
    -0.00488      0.03470   13773.00000
    -0.00488      0.03778   13872.00000
    -0.00488      0.03991   13972.00000
     1.99463     -1.36964   14474.00000
     1.99463     -1.57963   14575.00000
     1.99463     -1.59198   14676.00000
     1.99463     -1.56072   14775.00000
     1.99463     -1.53695   14875.00000
     1.99463     -1.52022   14976.00000
     1.99463     -1.50734   15075.00000
     1.99463     -1.48799   15175.00000
     1.99463     -1.47994   15276.00000
     1.99463     -1.47079   15375.00000
    -1.99707      1.37528   16517.00000
    -1.99707      1.62690   16617.00000
    -1.99707      1.67161   16718.00000
    -1.99707      1.64411   16817.00000
    -1.99707      1.61942   16917.00000
    -1.99707      1.58703   17018.00000
    -1.99707      1.57533   17117.00000
    -1.99707      1.56404   17217.00000
    -1.99707      1.55523   17318.00000
    -1.99707      1.54923   17417.00000
    -0.00488      0.22740   18171.00000
    -0.00488      0.00093   18272.00000
    -0.00488     -0.03914   18372.00000
    -0.00488     -0.02209   18473.00000
    -0.00488     -0.00474   18572.00000
    -0.00488      0.00836   18672.00000
    -0.00488      0.02024   18773.00000
    -0.00488      0.02505   18872.00000
    -0.00488      0.03021   18971.00000
    -0.00488      0.03513   19073.00000
     2.49268     -1.52587   19604.00000
     2.49268     -1.93685   19706.00000
     2.49268     -2.04646   19805.00000
     2.49268     -1.99043   19905.00000
     2.49268     -1.96746   20006.00000
     2.49268     -1.95071   20105.00000
     2.49268     -1.93586   20205.00000
     2.49268     -1.92424   20306.00000
     2.49268     -1.91384   20405.00000
     2.49268     -1.90449   20505.00000
    -2.49756      1.60580   21714.00000
    -2.49756      1.97788   21814.00000
    -2.49756      2.09130   21914.00000
    -2.49756      2.03926   22015.00000
    -2.49756      2.01738   22114.00000
    -2.49756      1.99950   22214.00000
    -2.49756      1.98318   22315.00000
    -2.49756      1.97240   22414.00000
    -2.49756      1.96219   22514.00000
    -2.49756      1.95306   22615.00000
    -0.00488      0.11710   23423.00000
    -0.00488     -0.03370   23524.00000
    -0.00488     -0.04502   23624.00000
    -0.00488     -0.02417   23725.00000
    -0.00488     -0.00801   23824.00000
    -0.00488      0.00374   23924.00000
    -0.00488      0.01654   24025.00000
    -0.00488      0.02373   24124.00000
    -0.00488      0.03043   24224.00000
    -0.00488      0.03270   24325.00000
     2.99316     -2.30335   24898.00000
     2.99316     -2.49418   25000.00000
     2.99316     -2.49278   25099.00000
     2.99316     -2.45660   25199.00000
     2.99316     -2.42805   25300.00000
     2.99316     -2.40573   25399.00000
     2.99316     -2.38828   25499.00000
     2.99316     -2.37534   25600.00000
     2.99316     -2.35127   25699.00000
     2.99316     -2.34227   25799.00000
    -2.99560      2.34005   27094.00000
    -2.99560      2.53130   27194.00000
    -2.99560      2.53283   27294.00000
    -2.99560      2.49455   27395.00000
    -2.99560      2.46684   27494.00000
    -2.99560      2.44493   27594.00000
    -2.99560      2.42737   27695.00000
    -2.99560      2.40189   27794.00000
    -2.99560      2.39049   27895.00000
    -2.99560      2.38147   27994.00000
    -0.00488      0.04640   28846.00000
    -0.00488     -0.05397   28947.00000
    -0.00488     -0.05124   29048.00000
    -0.00488     -0.02895   29147.00000
    -0.00488     -0.01204   29246.00000
    -0.00488      0.00055   29348.00000
    -0.00488      0.00847   29447.00000
    -0.00488      0.02197   29547.00000
    -0.00488      0.02532   29648.00000
    -0.00488      0.02973   29747.00000
     3.49365     -2.69139   30359.00000
     3.49365     -2.96138   30461.00000
     3.49365     -2.98459   30560.00000
     3.49365     -2.94131   30660.00000
     3.49365     -2.90814   30761.00000
     3.49365     -2.86318   30860.00000
     3.49365     -2.84722   30960.00000
     3.49365     -2.83285   31061.00000
     3.49365     -2.81988   31160.00000
     3.49365     -2.80886   31260.00000
    -3.49609      2.78762   32627.00000
    -3.49609      3.00766   32728.00000
    -3.49609      3.01725   32827.00000
    -3.49609      2.97645   32927.00000
    -3.49609      2.94476   33028.00000
    -3.49609      2.92096   33127.00000
    -3.49609      2.88590   33228.00000
    -3.49609      2.87261   33327.00000
    -3.49609      2.86096   33427.00000
    -3.49609      2.85059   33528.00000
    -0.00488      0.13444   34391.00000
    -0.00488     -0.04200   34491.00000
    -0.00488     -0.06691   34591.00000
    -0.00488     -0.04489   34692.00000
    -0.00488     -0.02230   34791.00000
    -0.00488     -0.01007   34890.00000
    -0.00488      0.00947   34991.00000
    -0.00488      0.01625   35091.00000
    -0.00488      0.02076   35192.00000
    -0.00488      0.02462   35291.00000
     3.99414     -2.88277   35922.00000
     3.99414     -3.35716   36022.00000
     3.99414     -3.46592   36122.00000
     3.99414     -3.42124   36223.00000
     3.99414     -3.39131   36322.00000
     3.99414     -3.36659   36422.00000
     3.99414     -3.34627   36523.00000
     3.99414     -3.32893   36622.00000
     3.99414     -3.31418   36722.00000
     3.99414     -3.29181   36823.00000
    -3.99658      3.27019   38238.00000
    -3.99658      3.51668   38339.00000
    -3.99658      3.52757   38440.00000
    -3.99658      3.48361   38539.00000
    -3.99658      3.44936   38639.00000
    -3.99658      3.42264   38740.00000
    -3.99658      3.38411   38839.00000
    -3.99658      3.36891   38939.00000
    -3.99658      3.35521   39040.00000
    -3.99658      3.34230   39139.00000
    -0.00488      0.23088   40045.00000
    -0.00488     -0.01023   40146.00000
    -0.00488     -0.06067   40245.00000
    -0.00488     -0.03635   40345.00000
    -0.00488     -0.02068   40446.00000
    -0.00488     -0.00931   40545.00000
    -0.00488      0.00123   40645.00000
    -0.00488      0.00893   40746.00000
    -0.00488      0.01444   40845.00000
    -0.00488      0.02586   40945.00000
     4.49463     -3.49983   41624.00000
     4.49463     -3.91486   41726.00000
     4.49463     -3.98343   41825.00000
     4.49463     -3.93848   41925.00000
     4.49463     -3.90538   42026.00000
     4.49463     -3.87955   42125.00000
     4.49463     -3.85889   42225.00000
     4.49463     -3.84101   42326.00000
     4.49463     -3.82563   42425.00000
     4.49463     -3.79813   42525.00000
    -4.49707      3.42277   44008.00000
    -4.49707      4.06055   44110.00000
    -4.49707      4.04213   44209.00000
    -4.49707      3.99812   44309.00000
    -4.49707      3.96389   44410.00000
    -4.49707      3.93698   44509.00000
    -4.49707      3.91697   44609.00000
    -4.49707      3.90008   44710.00000
    -4.49707      3.86958   44809.00000
    -4.49707      3.85753   44909.00000
    -0.00488      0.26317   45840.00000
    -0.00488     -0.08068   45940.00000
    -0.00488     -0.07063   46041.00000
    -0.00488     -0.04570   46140.00000
    -0.00488     -0.02725   46240.00000
    -0.00488     -0.01536   46340.00000
    -0.00488     -0.00418   46440.00000
    -0.00488      0.00444   46541.00000
    -0.00488      0.01690   46640.00000
    -0.00488      0.02265   46740.00000
     4.99512     -4.33974   47444.00000
     4.99512     -4.55664   47545.00000
     4.99512     -4.54916   47645.00000
     4.99512     -4.49718   47746.00000
     4.99512     -4.45814   47845.00000
     4.99512     -4.42845   47945.00000
     4.99512     -4.38266   48046.00000
     4.99512     -4.36502   48145.00000
     4.99512     -4.34943   48245.00000
     4.99512     -4.33501   48346.00000
    -4.99512      4.02857   49871.00000
    -4.99512      4.62380   49971.00000
    -4.99512      4.59259   50071.00000
    -4.99512      4.54364   50172.00000
    -4.99512      4.50793   50271.00000
    -4.99512      4.48116   50371.00000
    -4.99512      4.45835   50472.00000
    -4.99512      4.43901   50571.00000
    -4.99512      4.40713   50671.00000
    -4.99512      4.39303   50772.00000
    -0.00488      0.30742   51720.00000
    -0.00488     -0.08619   51821.00000
    -0.00488     -0.08060   51922.00000
    -0.00488     -0.05507   52021.00000
    -0.00488     -0.03441   52121.00000
    -0.00488     -0.02025   52222.00000
    -0.00488     -0.00980   52321.00000
    -0.00488     -0.00123   52421.00000
    -0.00488      0.01484   52522.00000
    -0.00488      0.01957   52621.00000
     5.49316     -4.73216   53337.00000
     5.49316     -5.09030   53437.00000
     5.49316     -5.13977   53539.00000
     5.49316     -5.08579   53638.00000
     5.49316     -5.03792   53738.00000
     5.49316     -4.97541   53839.00000
     5.49316     -4.95131   53938.00000
     5.49316     -4.93078   54038.00000
     5.49316     -4.91430   54139.00000
     5.49316     -4.89920   54238.00000
    -5.49561      4.55466   55824.00000
    -5.49561      5.05893   55925.00000
    -5.49561      5.17229   56026.00000
    -5.49561      5.12007   56125.00000
    -5.49561      5.08281   56226.00000
    -5.49561      5.05380   56325.00000
    -5.49561      5.02786   56425.00000
    -5.49561      5.00760   56526.00000
    -5.49561      4.98996   56625.00000
    -5.49561      4.95773   56725.00000
    -0.00488      0.03413   57699.00000
    -0.00488     -0.09025   57799.00000
    -0.00488     -0.09160   57900.00000
    -0.00488     -0.06383   57999.00000
    -0.00488     -0.04265   58099.00000
    -0.00488     -0.02614   58200.00000
    -0.00488     -0.00526   58299.00000
    -0.00488      0.00258   58399.00000
    -0.00488      0.01122   58500.00000
    -0.00488      0.01695   58599.00000
     5.99365     -5.57134   59352.00000
     5.99365     -5.74445   59452.00000
     5.99365     -5.71554   59552.00000
     5.99365     -5.65716   59653.00000
     5.99365     -5.61456   59752.00000
     5.99365     -5.58244   59853.00000
     5.99365     -5.55551   59952.00000
     5.99365     -5.51107   60052.00000
     5.99365     -5.49448   60153.00000
     5.99365     -5.47870   60252.00000
    -5.99609      5.21789   61876.00000
    -5.99609      5.69360   61976.00000
    -5.99609      5.77684   62077.00000
    -5.99609      5.72440   62176.00000
    -5.99609      5.68461   62276.00000
    -5.99609      5.65311   62377.00000
    -5.99609      5.62690   62476.00000
    -5.99609      5.60529   62576.00000
    -5.99609      5.58584   62677.00000
    -5.99609      5.55407   62776.00000
    -0.00488      0.09908   63781.00000
    -0.00488     -0.07344   63881.00000
    -0.00488     -0.10235   63981.00000
    -0.00488     -0.07893   64082.00000
    -0.00488     -0.03676   64181.00000
    -0.00488     -0.02325   64281.00000
    -0.00488     -0.00982   64382.00000
    -0.00488     -0.00307   64481.00000
    -0.00488      0.00379   64581.00000
    -0.00488      0.01174   64682.00000
     6.49170     -5.88420   65469.00000
     6.49170     -6.29062   65571.00000
     6.49170     -6.30675   65670.00000
     6.49170     -6.25221   65770.00000
     6.49170     -6.21225   65871.00000
     6.49170     -6.18034   65970.00000
     6.49170     -6.15268   66070.00000
     6.49170     -6.12937   66171.00000
     6.49170     -6.10975   66270.00000
     6.49170     -6.07539   66370.00000
    -6.49658      6.19666   68061.00000
    -6.49658      6.43931   68161.00000
    -6.49658      6.43915   68262.00000
    -6.49658      6.38179   68361.00000
    -6.49658      6.33630   68461.00000
    -6.49658      6.27060   68562.00000
    -6.49658      6.24655   68661.00000
    -6.49658      6.22405   68761.00000
    -6.49658      6.20403   68862.00000
    -6.49658      6.18850   68961.00000
    -0.00488      0.03740   69995.00000
    -0.00488     -0.09606   70096.00000
    -0.00488     -0.10865   70195.00000
    -0.00488     -0.08071   70295.00000
    -0.00488     -0.05578   70396.00000
    -0.00488     -0.02414   70494.00000
    -0.00488     -0.01258   70595.00000
    -0.00488     -0.00326   70696.00000
    -0.00488      0.00433   70795.00000
    -0.00488      0.00979   70895.00000
     6.99463     -6.43634   71684.00000
     6.99463     -6.92286   71785.00000
     6.99463     -7.03041   71886.00000
     6.99463     -6.91362   71985.00000
     6.99463     -6.86821   72085.00000
     6.99463     -6.83201   72186.00000
     6.99463     -6.80335   72285.00000
     6.99463     -6.77725   72385.00000
     6.99463     -6.75542   72486.00000
     6.99463     -6.73592   72585.00000
    -6.99707      6.49002   74319.00000
    -6.99707      7.01301   74419.00000
    -6.99707      7.09721   74519.00000
    -6.99707      7.03670   74620.00000
    -6.99707      6.99339   74719.00000
    -6.99707      6.95808   74819.00000
    -6.99707      6.92931   74920.00000
    -6.99707      6.90408   75019.00000
    -6.99707      6.88128   75119.00000
    -6.99707      6.84567   75220.00000
    -0.00488      0.20665   76259.00000
    -0.00488     -0.11745   76360.00000
    -0.00488     -0.10427   76461.00000
    -0.00488     -0.07566   76560.00000
    -0.00488     -0.05467   76660.00000
    -0.00488     -0.03697   76761.00000
    -0.00488     -0.02090   76860.00000
    -0.00488     -0.01182   76960.00000
    -0.00488      0.00455   77060.00000
    -0.00488      0.01063   77160.00000
     7.49268     -7.29881   77973.00000
     7.49268     -7.67175   78075.00000
     7.49268     -7.70731   78174.00000
     7.49268     -7.63842   78274.00000
     7.49268     -7.53444   78375.00000
     7.49268     -7.49796   78474.00000
     7.49268     -7.46733   78574.00000
     7.49268     -7.44223   78675.00000
     7.49268     -7.42081   78774.00000
     7.49268     -7.40003   78874.00000
    -7.49756      7.01106   80650.00000
    -7.49756      7.86520   80750.00000
    -7.49756      7.83619   80851.00000
    -7.49756      7.77003   80950.00000
    -7.49756      7.72021   81050.00000
    -7.49756      7.68204   81151.00000
    -7.49756      7.65008   81250.00000
    -7.49756      7.62293   81350.00000
    -7.49756      7.57795   81451.00000
    -7.49756      7.55955   81550.00000
    -0.00488      0.03335   82615.00000
    -0.00488     -0.10829   82715.00000
    -0.00488     -0.12275   82816.00000
    -0.00488     -0.09557   82915.00000
    -0.00488     -0.06796   83015.00000
    -0.00488     -0.03395   83116.00000
    -0.00488     -0.02379   83215.00000
    -0.00488     -0.01366   83315.00000
    -0.00488     -0.00474   83416.00000
    -0.00488      0.00239   83515.00000
     7.99316     -8.14987   84340.00000
     7.99316     -8.42197   84442.00000
     7.99316     -8.40500   84541.00000
     7.99316     -8.32671   84642.00000
     7.99316     -8.26896   84741.00000
     7.99316     -8.22408   84841.00000
     7.99316     -8.18802   84942.00000
     7.99316     -8.13029   85041.00000
     7.99316     -8.10708   85141.00000
     7.99316     -8.08614   85242.00000
    -7.99561      7.66448   87047.00000
    -7.99561      8.63771   87147.00000
    -7.99561      8.61486   87248.00000
    -7.99561      8.54434   87347.00000
    -7.99561      8.48986   87447.00000
    -7.99561      8.44760   87548.00000
    -7.99561      8.41310   87647.00000
    -7.99561      8.38398   87747.00000
    -7.99561      8.33619   87848.00000
    -7.99561      8.31509   87947.00000
    -0.00488      0.08287   89061.00000
    -0.00488     -0.12737   89162.00000
    -0.00488     -0.10697   89263.00000
    -0.00488     -0.07931   89362.00000
    -0.00488     -0.05721   89463.00000
    -0.00488     -0.04103   89562.00000
    -0.00488     -0.02979   89662.00000
    -0.00488     -0.01850   89763.00000
    -0.00488     -0.00261   89862.00000
    -0.00488      0.00479   89962.00000
     8.49365     -8.34849   90812.00000
     8.49365     -9.17689   90914.00000
     8.49365     -9.12610   91013.00000
     8.49365     -9.04900   91113.00000
     8.49365     -8.99143   91214.00000
     8.49365     -8.94707   91313.00000
     8.49365     -8.90933   91413.00000
     8.49365     -8.87634   91514.00000
     8.49365     -8.82571   91613.00000
     8.49365     -8.80183   91713.00000
    -8.49365      9.06990   93562.00000
    -8.49365      9.44890   93663.00000
    -8.49365      9.47184   93763.00000
    -8.49365      9.39625   93864.00000
    -8.49365      9.33635   93963.00000
    -8.49365      9.28786   94063.00000
    -8.49365      9.21570   94164.00000
    -8.49365      9.18780   94263.00000
    -8.49365      9.16316   94363.00000
    -8.49365      9.13941   94464.00000
    -0.00488     -0.03900   95565.00000
    -0.00488     -0.13334   95666.00000
    -0.00488     -0.12583   95766.00000
    -0.00488     -0.09549   95867.00000
    -0.00488     -0.07204   95966.00000
    -0.00488     -0.05324   96066.00000
    -0.00488     -0.03789   96167.00000
    -0.00488     -0.01652   96266.00000
    -0.00488     -0.00739   96366.00000
    -0.00488      0.00009   96467.00000
     8.99170     -9.54240   97352.00000
     8.99170     -9.90852   97454.00000
     8.99170     -9.93402   97553.00000
     8.99170     -9.85206   97653.00000
     8.99170     -9.73211   97754.00000
     8.99170     -9.68680   97853.00000
     8.99170     -9.64990   97954.00000
     8.99170     -9.61921   98053.00000
     8.99170     -9.59125   98153.00000
     8.99170     -9.56591   98254.00000
    -8.99658      9.98845  100144.00000
    -8.99658     10.35021  100245.00000
    -8.99658     10.36899  100346.00000
    -8.99658     10.29334  100445.00000
    -8.99658     10.22997  100545.00000
    -8.99658     10.13787  100646.00000
    -8.99658     10.10426  100745.00000
    -8.99658     10.07449  100845.00000
    -8.99658     10.04861  100946.00000
    -8.99658     10.02533  101045.00000
    -0.00488      0.01962  102183.00000
    -0.00488     -0.11634  102284.00000
    -0.00488     -0.13423  102384.00000
    -0.00488     -0.08179  102485.00000
    -0.00488     -0.06299  102584.00000
    -0.00488     -0.04483  102684.00000
    -0.00488     -0.03087  102785.00000
    -0.00488     -0.02006  102884.00000
    -0.00488     -0.01015  102984.00000
    -0.00488     -0.00153  103085.00000
     9.49463     -9.79667  103963.00000
     9.49463    -10.79227  104065.00000
     9.49463    -10.73832  104164.00000
     9.49463    -10.64895  104264.00000
     9.49463    -10.58368  104365.00000
     9.49463    -10.53071  104464.00000
     9.49463    -10.48664  104564.00000
     9.49463    -10.44953  104665.00000
     9.49463    -10.38944  104764.00000
     9.49463    -10.36402  104864.00000
    -9.49707     10.99410  106780.00000
    -9.49707     11.35278  106882.00000
    -9.49707     11.34105  106981.00000
    -9.49707     11.25496  107081.00000
    -9.49707     11.18766  107182.00000
    -9.49707     11.13517  107281.00000
    -9.49707     11.09173  107381.00000
    -9.49707     11.02360  107482.00000
    -9.49707     10.99642  107581.00000
    -9.49707     10.97070  107682.00000
    -0.00488     -0.01333  108849.00000
    -0.00488     -0.12882  108950.00000
    -0.00488     -0.13844  109051.00000
    -0.00488     -0.08420  109149.00000
    -0.00488     -0.06291  109250.00000
    -0.00488     -0.04713  109351.00000
    -0.00488     -0.03430  109450.00000
    -0.00488     -0.02330  109550.00000
    -0.00488     -0.01485  109651.00000
    -0.00488     -0.00466  109750.00000
     9.99512    -11.27641  110660.00000
     9.99512    -11.65695  110762.00000
     9.99512    -11.66549  110861.00000
     9.99512    -11.57183  110961.00000
     9.99512    -11.49462  111062.00000
     9.99512    -11.43442  111161.00000
     9.99512    -11.34481  111261.00000
     9.99512    -11.30751  111362.00000
     9.99512    -11.27549  111461.00000
     9.99512    -11.24772  111561.00000
    -9.99512     11.38906  113513.00000
    -9.99512     12.19169  113615.00000
    -9.99512     12.37304  113714.00000
    -9.99512     12.28656  113814.00000
    -9.99512     12.21851  113915.00000
    -9.99512     12.16562  114014.00000
    -9.99512     12.12134  114114.00000
    -9.99512     12.08392  114215.00000
    -9.99512     12.05064  114314.00000
    -9.99512     11.99577  114414.00000
    -0.00488     -0.03141  115583.00000
    -0.00488     -0.14819  115684.00000
    -0.00488     -0.15379  115784.00000
    -0.00488     -0.12277  115885.00000
    -0.00488     -0.09500  115984.00000
    -0.00488     -0.05753  116084.00000
    -0.00488     -0.04478  116185.00000
    -0.00488     -0.03503  116284.00000
    -0.00488     -0.02479  116384.00000
    -0.00488     -0.01541  116485.00000
    10.49316    -12.19718  117425.00000
    10.49316    -12.62650  117526.00000
    10.49316    -12.65136  117627.00000
    10.49316    -12.54946  117726.00000
    10.49316    -12.40028  117826.00000
    10.49316    -12.34689  117927.00000
    10.49316    -12.30240  118026.00000
    10.49316    -12.26307  118126.00000
    10.49316    -12.22838  118227.00000
    10.49316    -12.19877  118326.00000
   -10.49560     12.88036  120327.00000
   -10.49560     13.45922  120428.00000
   -10.49560     13.55202  120529.00000
   -10.49560     13.47049  120628.00000
   -10.49560     13.32185  120728.00000
   -10.49560     13.26952  120829.00000
   -10.49560     13.22624  120928.00000
   -10.49560     13.18718  121028.00000
   -10.49560     13.15260  121129.00000
   -10.49560     13.12247  121228.00000
    -0.00488     -0.05113  122421.00000
    -0.00488     -0.15417  122522.00000
    -0.00488     -0.15514  122623.00000
    -0.00488     -0.12434  122722.00000
    -0.00488     -0.09778  122822.00000
    -0.00488     -0.06248  122923.00000
    -0.00488     -0.04878  123022.00000
    -0.00488     -0.03630  123122.00000
    -0.00488     -0.02614  123223.00000
    -0.00488     -0.01841  123322.00000
    10.99365    -13.07744  124270.00000
    10.99365    -13.67208  124371.00000
    10.99365    -13.75021  124470.00000
    10.99365    -13.64336  124570.00000
    10.99365    -13.47533  124671.00000
    10.99365    -13.41587  124770.00000
    10.99365    -13.36505  124870.00000
    10.99365    -13.32231  124971.00000
    10.99365    -13.28565  125070.00000
    10.99365    -13.25197  125170.00000
   -10.99609     14.36091  127214.00000
   -10.99609     14.78305  127316.00000
   -10.99609     14.77587  127415.00000
   -10.99609     14.67345  127515.00000
   -10.99609     14.59095  127616.00000
   -10.99609     14.52562  127715.00000
   -10.99609     14.47227  127815.00000
   -10.99609     14.38639  127916.00000
   -10.99609     14.35089  128015.00000
   -10.99609     14.31960  128115.00000
    -0.00488      0.10734  129308.00000
    -0.00488     -0.17005  129410.00000
    -0.00488     -0.15354  129509.00000
    -0.00488     -0.12331  129609.00000
    -0.00488     -0.09881  129710.00000
    -0.00488     -0.07666  129809.00000
    -0.00488     -0.06104  129909.00000
    -0.00488     -0.04832  130010.00000
    -0.00488     -0.02752  130109.00000
    -0.00488     -0.02093  130208.00000
    10.99121    -13.34744  131156.00000
    10.99121    -13.67430  131257.00000
    10.99121    -13.62980  131357.00000
    10.99121    -13.52009  131458.00000
    10.99121    -13.43888  131557.00000
    10.99121    -13.37418  131657.00000
    10.99121    -13.32085  131758.00000
    10.99121    -13.23549  131857.00000
    10.99121    -13.20150  131957.00000
    10.99121    -13.16868  132057.00000
   -10.99365     13.60716  134113.00000
   -10.99365     14.50747  134213.00000
   -10.99365     14.68461  134314.00000
   -10.99365     14.58687  134413.00000
   -10.99365     14.51379  134513.00000
   -10.99365     14.45473  134614.00000
   -10.99365     14.40392  134713.00000
   -10.99365     14.36132  134813.00000
   -10.99365     14.32487  134914.00000
   -10.99365     14.25987  135013.00000
    -0.00488      0.01746  136206.00000
    -0.00488     -0.14095  136306.00000
    -0.00488     -0.17089  136407.00000
    -0.00488     -0.11343  136506.00000
    -0.00488     -0.08833  136606.00000
    -0.00488     -0.06899  136707.00000
    -0.00488     -0.05540  136806.00000
    -0.00488     -0.04311  136906.00000
    -0.00488     -0.03195  137007.00000
    -0.00488     -0.02322  137106.00000
    10.49316    -11.81780  138047.00000
    10.49316    -12.36524  138149.00000
    10.49316    -12.45831  138248.00000
    10.49316    -12.27779  138348.00000
    10.49316    -12.21298  138449.00000
    10.49316    -12.16003  138548.00000
    10.49316    -12.11470  138648.00000
    10.49316    -12.07601  138749.00000
    10.49316    -12.04265  138848.00000
    10.49316    -12.01207  138948.00000
   -10.49560     12.52211  140950.00000
   -10.49560     13.23248  141051.00000
   -10.49560     13.33308  141150.00000
   -10.49560     13.24529  141250.00000
   -10.49560     13.17958  141351.00000
   -10.49560     13.12655  141450.00000
   -10.49560     13.08300  141550.00000
   -10.49560     13.04559  141651.00000
   -10.49560     13.01166  141750.00000
   -10.49560     12.95565  141850.00000
    -0.00488     -0.02295  143043.00000
    -0.00488     -0.14968  143145.00000
    -0.00488     -0.16203  143244.00000
    -0.00488     -0.10427  143344.00000
    -0.00488     -0.08133  143445.00000
    -0.00488     -0.06574  143544.00000
    -0.00488     -0.05243  143644.00000
    -0.00488     -0.04270  143745.00000
    -0.00488     -0.03268  143844.00000
    -0.00488     -0.02317  143944.00000
     9.99512    -11.00248  144855.00000
     9.99512    -11.38744  144956.00000
     9.99512    -11.39958  145056.00000
     9.99512    -11.30432  145157.00000
     9.99512    -11.22741  145256.00000
     9.99512    -11.12229  145357.00000
     9.99512    -11.08293  145456.00000
     9.99512    -11.04840  145556.00000
     9.99512    -11.01771  145657.00000
     9.99512    -10.99099  145756.00000
    -9.99756     11.75766  147739.00000
    -9.99756     12.17007  147840.00000
    -9.99756     12.18820  147939.00000
    -9.99756     12.10283  148039.00000
    -9.99756     12.03108  148140.00000
    -9.99756     11.97486  148239.00000
    -9.99756     11.89174  148339.00000
    -9.99756     11.85853  148440.00000
    -9.99756     11.82901  148539.00000
    -9.99756     11.80334  148639.00000
    -0.00488      0.03899  149808.00000
    -0.00488     -0.12561  149909.00000
    -0.00488     -0.13744  150010.00000
    -0.00488     -0.10532  150109.00000
    -0.00488     -0.08103  150209.00000
    -0.00488     -0.06461  150310.00000
    -0.00488     -0.04991  150409.00000
    -0.00488     -0.03959  150509.00000
    -0.00488     -0.03019  150610.00000
    -0.00488     -0.01134  150709.00000
     9.49463    -10.15500  151582.00000
     9.49463    -10.46960  151684.00000
     9.49463    -10.44680  151783.00000
     9.49463    -10.35465  151884.00000
     9.49463    -10.28616  151983.00000
     9.49463    -10.23246  152083.00000
     9.49463    -10.18977  152184.00000
     9.49463    -10.12105  152283.00000
     9.49463    -10.09357  152383.00000
     9.49463    -10.06866  152484.00000
    -9.49463     10.66391  154398.00000
    -9.49463     11.08703  154500.00000
    -9.49463     11.10421  154599.00000
    -9.49463     11.01876  154700.00000
    -9.49463     10.95087  154799.00000
    -9.49463     10.89930  154899.00000
    -9.49463     10.81974  155000.00000
    -9.49463     10.78956  155099.00000
    -9.49463     10.76190  155199.00000
    -9.49463     10.73740  155300.00000
    -0.00488      0.00152  156467.00000
    -0.00488     -0.12610  156568.00000
    -0.00488     -0.11802  156669.00000
    -0.00488     -0.08960  156768.00000
    -0.00488     -0.06818  156868.00000
    -0.00488     -0.05245  156969.00000
    -0.00488     -0.03851  157068.00000
    -0.00488     -0.02665  157168.00000
    -0.00488     -0.01622  157269.00000
    -0.00488     -0.00372  157368.00000
     8.99414     -9.39887  158255.00000
     8.99414     -9.60802  158355.00000
     8.99414     -9.57091  158456.00000
     8.99414     -9.48873  158555.00000
     8.99414     -9.42727  158655.00000
     8.99414     -9.38107  158756.00000
     8.99414     -9.34271  158855.00000
     8.99414     -9.27892  158955.00000
     8.99414     -9.25364  159056.00000
     8.99414     -9.23122  159155.00000
    -8.99658      9.20203  161047.00000
    -8.99658     10.11242  161148.00000
    -8.99658     10.07687  161247.00000
    -8.99658     10.00336  161347.00000
    -8.99658      9.94663  161448.00000
    -8.99658      9.90127  161548.00000
    -8.99658      9.86396  161647.00000
    -8.99658      9.83265  161748.00000
    -8.99658      9.78092  161847.00000
    -8.99658      9.75968  161947.00000
    -0.00488     -0.05804  163079.00000
    -0.00488     -0.14052  163180.00000
    -0.00488     -0.13445  163281.00000
    -0.00488     -0.10267  163380.00000
    -0.00488     -0.07712  163480.00000
    -0.00488     -0.05853  163581.00000
    -0.00488     -0.03319  163680.00000
    -0.00488     -0.02133  163780.00000
    -0.00488     -0.01269  163881.00000
    -0.00488     -0.00466  163980.00000
     8.49365     -8.54632  164829.00000
     8.49365     -8.81453  164930.00000
     8.49365     -8.79378  165031.00000
     8.49365     -8.71509  165130.00000
     8.49365     -8.65319  165230.00000
     8.49365     -8.60632  165331.00000
     8.49365     -8.57015  165430.00000
     8.49365     -8.51004  165530.00000
     8.49365     -8.48597  165631.00000
     8.49365     -8.46409  165730.00000
    -8.49609      8.56804  167586.00000
    -8.49609      9.10264  167685.00000
    -8.49609      9.20879  167785.00000
    -8.49609      9.14673  167886.00000
    -8.49609      9.02892  167985.00000
    -8.49609      8.98988  168085.00000
    -8.49609      8.95692  168186.00000
    -8.49609      8.92942  168285.00000
    -8.49609      8.90327  168385.00000
    -8.49609      8.88176  168486.00000
    -0.00488      0.00863  169585.00000
    -0.00488     -0.12040  169687.00000
    -0.00488     -0.13188  169786.00000
    -0.00488     -0.10394  169886.00000
    -0.00488     -0.07542  169987.00000
    -0.00488     -0.03997  170086.00000
    -0.00488     -0.02744  170186.00000
    -0.00488     -0.01720  170286.00000
    -0.00488     -0.00734  170386.00000
    -0.00488     -0.00118  170487.00000
     7.99316     -7.80837  171311.00000
     7.99316     -8.06307  171412.00000
     7.99316     -8.04200  171513.00000
     7.99316     -7.96787  171612.00000
     7.99316     -7.91171  171712.00000
     7.99316     -7.86829  171813.00000
     7.99316     -7.83268  171912.00000
     7.99316     -7.77728  172012.00000
     7.99316     -7.75523  172113.00000
     7.99316     -7.73419  172212.00000
    -7.99316      7.39708  174018.00000
    -7.99316      8.35381  174119.00000
    -7.99316      8.33376  174218.00000
    -7.99316      8.26436  174318.00000
    -7.99316      8.21203  174419.00000
    -7.99316      8.17118  174518.00000
    -7.99316      8.13774  174618.00000
    -7.99316      8.10853  174719.00000
    -7.99316      8.06155  174818.00000
    -7.99316      8.04286  174918.00000
    -0.00488      0.07447  176031.00000
    -0.00488     -0.12399  176132.00000
    -0.00488     -0.10467  176232.00000
    -0.00488     -0.07720  176333.00000
    -0.00488     -0.05567  176432.00000
    -0.00488     -0.03957  176532.00000
    -0.00488     -0.02338  176633.00000
    -0.00488     -0.01228  176732.00000
    -0.00488      0.00258  176832.00000
    -0.00488      0.00847  176933.00000
     7.49268     -6.95201  177745.00000
     7.49268     -7.31653  177846.00000
     7.49268     -7.35443  177946.00000
     7.49268     -7.28511  178047.00000
     7.49268     -7.18426  178146.00000
     7.49268     -7.14871  178246.00000
     7.49268     -7.12026  178347.00000
     7.49268     -7.09487  178446.00000
     7.49268     -7.07261  178546.00000
     7.49268     -7.05302  178647.00000
    -7.49756      6.72791  180421.00000
    -7.49756      7.58119  180523.00000
    -7.49756      7.55734  180622.00000
    -7.49756      7.49164  180722.00000
    -7.49756      7.44285  180823.00000
    -7.49756      7.40378  180922.00000
    -7.49756      7.37172  181022.00000
    -7.49756      7.34646  181123.00000
    -7.49756      7.30412  181222.00000
    -7.49756      7.28543  181322.00000
    -0.00488      0.03475  182387.00000
    -0.00488     -0.10073  182488.00000
    -0.00488     -0.11402  182587.00000
    -0.00488     -0.08655  182687.00000
    -0.00488     -0.06131  182788.00000
    -0.00488     -0.02530  182887.00000
    -0.00488     -0.01304  182988.00000
    -0.00488     -0.00377  183087.00000
    -0.00488      0.00255  183187.00000
    -0.00488      0.01028  183288.00000
     6.99463     -6.13720  184076.00000
     6.99463     -6.58952  184176.00000
     6.99463     -6.68353  184277.00000
     6.99463     -6.56669  184376.00000
     6.99463     -6.52376  184476.00000
     6.99463     -6.48910  184577.00000
     6.99463     -6.46055  184676.00000
     6.99463     -6.43610  184776.00000
     6.99463     -6.41451  184877.00000
     6.99463     -6.39579  184976.00000
    -6.99707      6.25301  186709.00000
    -6.99707      6.74558  186810.00000
    -6.99707      6.81669  186910.00000
    -6.99707      6.75858  187011.00000
    -6.99707      6.71703  187110.00000
    -6.99707      6.68415  187210.00000
    -6.99707      6.65670  187311.00000
    -6.99707      6.63231  187410.00000
    -6.99707      6.61086  187511.00000
    -6.99707      6.59189  187610.00000
    -0.00488      0.18428  188650.00000
    -0.00488     -0.11275  188752.00000
    -0.00488     -0.09876  188851.00000
    -0.00488     -0.06950  188951.00000
    -0.00488     -0.04675  189052.00000
    -0.00488     -0.03154  189151.00000
    -0.00488     -0.01866  189251.00000
    -0.00488     -0.00939  189352.00000
    -0.00488      0.00112  189451.00000
    -0.00488      0.01519  189551.00000
     6.49414     -5.87469  190340.00000
     6.49414     -6.02846  190441.00000
     6.49414     -5.99410  190542.00000
     6.49414     -5.93502  190641.00000
     6.49414     -5.89058  190741.00000
     6.49414     -5.85754  190842.00000
     6.49414     -5.83187  190941.00000
     6.49414     -5.78708  191041.00000
     6.49414     -5.76925  191142.00000
     6.49414     -5.75331  191241.00000
    -6.49658      5.76352  192932.00000
    -6.49658      6.12193  193032.00000
    -6.49658      6.18047  193132.00000
    -6.49658      6.08246  193233.00000
    -6.49658      6.04272  193332.00000
    -6.49658      6.01260  193432.00000
    -6.49658      5.98807  193533.00000
    -6.49658      5.96708  193632.00000
    -6.49658      5.94814  193732.00000
    -6.49658      5.93045  193833.00000
    -0.00488      0.11172  194867.00000
    -0.00488     -0.06580  194967.00000
    -0.00488     -0.08379  195068.00000
    -0.00488     -0.05389  195167.00000
    -0.00488     -0.03487  195267.00000
    -0.00488     -0.02031  195368.00000
    -0.00488     -0.00855  195467.00000
    -0.00488     -0.00004  195567.00000
    -0.00488      0.00798  195668.00000
    -0.00488      0.02378  195767.00000
     5.99365     -4.97508  196520.00000
     5.99365     -5.35032  196620.00000
     5.99365     -5.41441  196720.00000
     5.99365     -5.31199  196821.00000
     5.99365     -5.27455  196920.00000
     5.99365     -5.24391  197020.00000
     5.99365     -5.22000  197121.00000
     5.99365     -5.19920  197220.00000
     5.99365     -5.18148  197320.00000
     5.99365     -5.16540  197421.00000
    -5.99609      5.21295  199043.00000
    -5.99609      5.51730  199143.00000
    -5.99609      5.55088  199244.00000
    -5.99609      5.49953  199343.00000
    -5.99609      5.45357  199443.00000
    -5.99609      5.39071  199544.00000
    -5.99609      5.36791  199643.00000
    -5.99609      5.34891  199743.00000
    -5.99609      5.33136  199844.00000
    -5.99609      5.31588  199943.00000
    -0.00488      0.01149  200946.00000
    -0.00488     -0.08701  201048.00000
    -0.00488     -0.08371  201147.00000
    -0.00488     -0.05826  201247.00000
    -0.00488     -0.03651  201348.00000
    -0.00488     -0.01955  201447.00000
    -0.00488     -0.00701  201548.00000
    -0.00488      0.01111  201647.00000
    -0.00488      0.01773  201747.00000
    -0.00488      0.02665  201848.00000
     5.49316     -4.36197  202568.00000
     5.49316     -4.75012  202669.00000
     5.49316     -4.82428  202768.00000
     5.49316     -4.72843  202868.00000
     5.49316     -4.69307  202969.00000
     5.49316     -4.66597  203068.00000
     5.49316     -4.64290  203168.00000
     5.49316     -4.62326  203269.00000
     5.49316     -4.60740  203368.00000
     5.49316     -4.59273  203469.00000
    -5.49561      4.30980  205048.00000
    -5.49561      4.95822  205149.00000
    -5.49561      4.93191  205249.00000
    -5.49561      4.88252  205350.00000
    -5.49561      4.84386  205449.00000
    -5.49561      4.81544  205549.00000
    -5.49561      4.79137  205650.00000
    -5.49561      4.77162  205749.00000
    -5.49561      4.73834  205849.00000
    -5.49561      4.72424  205950.00000
    -0.00488      0.06420  206922.00000
    -0.00488     -0.06926  207023.00000
    -0.00488     -0.07747  207122.00000
    -0.00488     -0.05167  207223.00000
    -0.00488     -0.02755  207322.00000
    -0.00488     -0.01258  207422.00000
    -0.00488      0.00998  207523.00000
    -0.00488      0.01868  207622.00000
    -0.00488      0.02546  207722.00000
    -0.00488      0.03224  207823.00000
     4.99268     -3.87866  208525.00000
     4.99268     -4.20825  208626.00000
     4.99268     -4.25750  208727.00000
     4.99268     -4.21114  208826.00000
     4.99268     -4.13742  208926.00000
     4.99268     -4.11210  209027.00000
     4.99268     -4.09227  209126.00000
     4.99268     -4.07531  209226.00000
     4.99268     -4.05959  209326.00000
     4.99268     -4.04594  209426.00000
    -4.99512      4.02422  210976.00000
    -4.99512      4.34257  211077.00000
    -4.99512      4.39260  211176.00000
    -4.99512      4.34827  211277.00000
    -4.99512      4.27470  211376.00000
    -4.99512      4.25061  211476.00000
    -4.99512      4.23005  211577.00000
    -4.99512      4.21097  211676.00000
    -4.99512      4.19528  211776.00000
    -4.99512      4.18258  211877.00000
    -0.00488      0.17539  212825.00000
    -0.00488     -0.02592  212926.00000
    -0.00488     -0.07209  213027.00000
    -0.00488     -0.02908  213126.00000
    -0.00488     -0.00999  213226.00000
    -0.00488      0.00585  213327.00000
    -0.00488      0.01349  213426.00000
    -0.00488      0.02238  213526.00000
    -0.00488      0.02986  213627.00000
    -0.00488      0.03797  213726.00000
     4.49463     -3.32063  214411.00000
     4.49463     -3.65881  214512.00000
     4.49463     -3.68559  214613.00000
     4.49463     -3.64366  214712.00000
     4.49463     -3.61440  214812.00000
     4.49463     -3.59176  214913.00000
     4.49463     -3.57334  215012.00000
     4.49463     -3.55667  215112.00000
     4.49463     -3.54208  215213.00000
     4.49463     -3.52946  215312.00000
    -4.49707      3.30442  216795.00000
    -4.49707      3.86037  216896.00000
    -4.49707      3.83778  216997.00000
    -4.49707      3.79467  217097.00000
    -4.49707      3.76184  217196.00000
    -4.49707      3.73688  217297.00000
    -4.49707      3.71705  217396.00000
    -4.49707      3.70003  217496.00000
    -4.49707      3.67232  217597.00000
    -4.49707      3.66092  217696.00000
    -0.00488      0.23053  218627.00000
    -0.00488      0.00209  218727.00000
    -0.00488     -0.04454  218828.00000
    -0.00488     -0.02398  218927.00000
    -0.00488     -0.00634  219027.00000
    -0.00488      0.01025  219128.00000
    -0.00488      0.01962  219227.00000
    -0.00488      0.02851  219327.00000
    -0.00488      0.03551  219428.00000
    -0.00488      0.04621  219527.00000
     3.99414     -2.89274  220158.00000
     3.99414     -3.17880  220258.00000
     3.99414     -3.21211  220358.00000
     3.99414     -3.16767  220459.00000
     3.99414     -3.13193  220558.00000
     3.99414     -3.10659  220658.00000
     3.99414     -3.06936  220759.00000
     3.99414     -3.05494  220858.00000
     3.99414     -3.04235  220958.00000
     3.99414     -3.03149  221059.00000
    -3.99658      2.89519  222467.00000
    -3.99658      3.27070  222568.00000
    -3.99658      3.36450  222669.00000
    -3.99658      3.29086  222768.00000
    -3.99658      3.26301  222868.00000
    -3.99658      3.24120  222969.00000
    -3.99658      3.22356  223068.00000
    -3.99658      3.20865  223168.00000
    -3.99658      3.19439  223269.00000
    -3.99658      3.18339  223368.00000
    -0.00488      0.09748  224274.00000
    -0.00488     -0.02946  224376.00000
    -0.00488     -0.03940  224475.00000
    -0.00488     -0.01704  224575.00000
    -0.00488      0.00198  224676.00000
    -0.00488      0.01554  224775.00000
    -0.00488      0.03694  224875.00000
    -0.00488      0.04523  224976.00000
    -0.00488      0.05158  225075.00000
    -0.00488      0.05501  225175.00000
     3.49365     -2.35762  225788.00000
     3.49365     -2.67029  225888.00000
     3.49365     -2.72449  225988.00000
     3.49365     -2.68958  226089.00000
     3.49365     -2.63242  226188.00000
     3.49365     -2.61394  226288.00000
     3.49365     -2.59878  226389.00000
     3.49365     -2.58490  226488.00000
     3.49365     -2.57358  226588.00000
     3.49365     -2.56353  226689.00000
    -3.49609      2.59030  228055.00000
    -3.49609      2.84438  228155.00000
    -3.49609      2.87809  228255.00000
    -3.49609      2.84041  228356.00000
    -3.49609      2.80901  228455.00000
    -3.49609      2.76641  228556.00000
    -3.49609      2.75163  228655.00000
    -3.49609      2.73842  228755.00000
    -3.49609      2.72748  228856.00000
    -3.49609      2.71819  228955.00000
    -0.00488      0.20981  229818.00000
    -0.00488      0.00709  229919.00000
    -0.00488     -0.03389  230020.00000
    -0.00488     -0.01393  230119.00000
    -0.00488      0.02124  230220.00000
    -0.00488      0.03286  230319.00000
    -0.00488      0.04002  230419.00000
    -0.00488      0.04761  230520.00000
    -0.00488      0.05301  230619.00000
    -0.00488      0.05747  230719.00000
     2.99316     -1.95336  231294.00000
     2.99316     -2.22495  231395.00000
     2.99316     -2.26025  231495.00000
     2.99316     -2.22527  231596.00000
     2.99316     -2.19596  231695.00000
     2.99316     -2.15862  231795.00000
     2.99316     -2.14447  231896.00000
     2.99316     -2.13342  231995.00000
     2.99316     -2.12367  232095.00000
     2.99316     -2.11567  232196.00000
    -2.99560      2.12458  233489.00000
    -2.99560      2.38582  233589.00000
    -2.99560      2.42807  233690.00000
    -2.99560      2.39516  233789.00000
    -2.99560      2.36526  233890.00000
    -2.99560      2.32665  233989.00000
    -2.99560      2.31301  234089.00000
    -2.99560      2.30075  234190.00000
    -2.99560      2.29016  234289.00000
    -2.99560      2.28189  234389.00000
    -0.00488      0.14516  235240.00000
    -0.00488      0.00196  235342.00000
    -0.00488     -0.01296  235441.00000
    -0.00488      0.00628  235541.00000
    -0.00488      0.02449  235642.00000
    -0.00488      0.04691  235741.00000
    -0.00488      0.05312  235841.00000
    -0.00488      0.05882  235942.00000
    -0.00488      0.06290  236041.00000
    -0.00488      0.07006  236141.00000
     2.49512     -1.28689  236674.00000
     2.49512     -1.69266  236775.00000
     2.49512     -1.80140  236876.00000
     2.49512     -1.77106  236975.00000
     2.49512     -1.74891  237075.00000
     2.49512     -1.73356  237176.00000
     2.49512     -1.72192  237275.00000
     2.49512     -1.71128  237375.00000
     2.49512     -1.70152  237476.00000
     2.49512     -1.69334  237575.00000
    -2.49756      1.50431  238783.00000
    -2.49756      1.87787  238885.00000
    -2.49756      1.99288  238984.00000
    -2.49756      1.96100  239084.00000
    -2.49756      1.93944  239185.00000
    -2.49756      1.92253  239284.00000
    -2.49756      1.90832  239384.00000
    -2.49756      1.89711  239485.00000
    -2.49756      1.88776  239585.00000
    -2.49756      1.87109  239684.00000
    -0.00488      0.17313  240487.00000
    -0.00488      0.01870  240588.00000
    -0.00488      0.00339  240687.00000
    -0.00488      0.02019  240787.00000
    -0.00488      0.03700  240888.00000
    -0.00488      0.04845  240987.00000
    -0.00488      0.06460  241087.00000
    -0.00488      0.07090  241188.00000
    -0.00488      0.07360  241287.00000
    -0.00488      0.07703  241387.00000
     1.99219     -1.13682  241890.00000
     1.99219     -1.36308  241990.00000
     1.99219     -1.38955  242091.00000
     1.99219     -1.36321  242190.00000
     1.99219     -1.34249  242289.00000
     1.99219     -1.32658  242391.00000
     1.99219     -1.30440  242490.00000
     1.99219     -1.29605  242590.00000
     1.99219     -1.28805  242691.00000
     1.99219     -1.28211  242790.00000
    -1.99707      1.29040  243931.00000
    -1.99707      1.55693  244032.00000
    -1.99707      1.61723  244133.00000
    -1.99707      1.59400  244232.00000
    -1.99707      1.54969  244332.00000
    -1.99707      1.53721  244433.00000
    -1.99707      1.52614  244532.00000
    -1.99707      1.51719  244632.00000
    -1.99707      1.50952  244733.00000
    -1.99707      1.50287  244832.00000
    -0.00488      0.30166  245586.00000
    -0.00488      0.06898  245687.00000
    -0.00488      0.01873  245787.00000
    -0.00488      0.03184  245888.00000
    -0.00488      0.04791  245987.00000
    -0.00488      0.06704  246087.00000
    -0.00488      0.07206  246188.00000
    -0.00488      0.07838  246287.00000
    -0.00488      0.08241  246387.00000
    -0.00488      0.08306  246488.00000
     1.49414     -0.46495  246946.00000
     1.49414     -0.98440  247047.00000
     1.49414     -0.98554  247147.00000
     1.49414     -0.96209  247248.00000
     1.49414     -0.94628  247347.00000
     1.49414     -0.93372  247447.00000
     1.49414     -0.92408  247548.00000
     1.49414     -0.91597  247647.00000
     1.49414     -0.90498  247747.00000
     1.49414     -0.89944  247848.00000
    -1.49414      1.05066  248896.00000
    -1.49414      1.22937  248998.00000
    -1.49414      1.24807  249097.00000
    -1.49414      1.22402  249197.00000
    -1.49414      1.20771  249298.00000
    -1.49414      1.19447  249397.00000
    -1.49414      1.18353  249497.00000
    -1.49414      1.16796  249598.00000
    -1.49414      1.16205  249697.00000
    -1.49414      1.15692  249797.00000
    -0.00488      0.41891  250509.00000
    -0.00488      0.12547  250609.00000
    -0.00488      0.04105  250710.00000
    -0.00488      0.04642  250809.00000
    -0.00488      0.07487  250909.00000
    -0.00488      0.08216  251010.00000
    -0.00488      0.08830  251109.00000
    -0.00488      0.09235  251209.00000
    -0.00488      0.09438  251310.00000
    -0.00488      0.09970  251409.00000
     0.99365     -0.29273  251807.00000
     0.99365     -0.54462  251909.00000
     0.99365     -0.61310  252008.00000
     0.99365     -0.60100  252109.00000
     0.99365     -0.58620  252208.00000
     0.99365     -0.56701  252308.00000
     0.99365     -0.56137  252409.00000
     0.99365     -0.55515  252508.00000
     0.99365     -0.55040  252608.00000
     0.99365     -0.54635  252709.00000
    -0.99365      0.62217  253654.00000
    -0.99365      0.84816  253755.00000
    -0.99365      0.90627  253855.00000
    -0.99365      0.89073  253956.00000
    -0.99365      0.87463  254055.00000
    -0.99365      0.85459  254156.00000
    -0.99365      0.84821  254255.00000
    -0.99365      0.84224  254355.00000
    -0.99365      0.83716  254456.00000
    -0.99365      0.83354  254555.00000
    -0.00488      0.34902  255217.00000
    -0.00488      0.12028  255318.00000
    -0.00488      0.07155  255417.00000
    -0.00488      0.08049  255517.00000
    -0.00488      0.09124  255618.00000
    -0.00488      0.09929  255717.00000
    -0.00488      0.10886  255817.00000
    -0.00488      0.11312  255918.00000
    -0.00488      0.11588  256017.00000
    -0.00488      0.11858  256117.00000
     0.49316     -0.00796  256455.00000
     0.49316     -0.18340  256557.00000
     0.49316     -0.25099  256656.00000
     0.49316     -0.24499  256756.00000
     0.49316     -0.23435  256857.00000
     0.49316     -0.22324  256956.00000
     0.49316     -0.21941  257056.00000
     0.49316     -0.21614  257157.00000
     0.49316     -0.21155  257256.00000
     0.49316     -0.20841  257357.00000
    -0.49316      0.24080  258174.00000
    -0.49316      0.53200  258274.00000
    -0.49316      0.55399  258374.00000
    -0.49316      0.54040  258475.00000
    -0.49316      0.53100  258574.00000
    -0.49316      0.52484  258674.00000
    -0.49316      0.52079  258775.00000
    -0.49316      0.51576  258874.00000
    -0.49316      0.51147  258974.00000
    -0.49316      0.50814  259075.00000
    -0.00488      0.47064  259664.00000
    -0.00488      0.14608  259765.00000
    -0.00488      0.10432  259865.00000
    -0.00488      0.11283  259966.00000
    -0.00488      0.12239  260065.00000
    -0.00488      0.12517  260165.00000
    -0.00488      0.12620  260266.00000
    -0.00488      0.12847  260365.00000
    -0.00488      0.13360  260465.00000
    -0.00488      0.13441  260566.00000