# Acquired on 16/01/2024 08:57:09 
# SPIDER: Tracking_07714532B-1
# STATIC MEASUREMENT

# pos [mm]		 force [N]		 time [ms]
0.25000			-0.01066			176.00000
0.25000			-0.16780			276.00000
0.25000			-0.53412			377.00000
0.25000			-0.70159			476.00000
0.25000			-0.70368			576.00000
0.25000			-0.69953			677.00000
0.25000			-0.69596			776.00000
0.25000			-0.69317			876.00000
0.25000			-0.69134			977.00000
0.25000			-0.68968			1076.00000
-0.25000			-0.27365			1766.00000
-0.25000			0.11680			1866.00000
-0.25000			0.50574			1967.00000
-0.25000			0.65188			2066.00000
-0.25000			0.64396			2166.00000
-0.25000			0.63775			2267.00000
-0.25000			0.63446			2366.00000
-0.25000			0.63202			2467.00000
-0.25000			0.62858			2566.00000
-0.25000			0.62551			2666.00000
0.00000			0.61126			3195.00000
0.00000			0.25545			3296.00000
0.00000			0.03114			3396.00000
0.00000			-0.00075			3497.00000
0.00000			0.00292			3596.00000
0.00000			0.00739			3696.00000
0.00000			0.00978			3797.00000
0.00000			0.01068			3896.00000
0.00000			0.01073			3996.00000
0.00000			0.01337			4097.00000
0.50000			-0.04225			4433.00000
0.50000			-1.12502			4534.00000
0.50000			-1.40648			4634.00000
0.50000			-1.42920			4735.00000
0.50000			-1.41671			4834.00000
0.50000			-1.40867			4934.00000
0.50000			-1.40218			5035.00000
0.50000			-1.39690			5134.00000
0.50000			-1.38858			5234.00000
0.50000			-1.38559			5335.00000
-0.50000			0.16285			6152.00000
-0.50000			0.78547			6252.00000
-0.50000			1.24692			6353.00000
-0.50000			1.34492			6452.00000
-0.50000			1.31730			6552.00000
-0.50000			1.30750			6653.00000
-0.50000			1.29888			6752.00000
-0.50000			1.29320			6852.00000
-0.50000			1.28835			6953.00000
-0.50000			1.28344			7052.00000
0.00000			1.10448			7647.00000
0.00000			0.54671			7747.00000
0.00000			0.06246			7848.00000
0.00000			-0.06146			7948.00000
0.00000			-0.05429			8048.00000
0.00000			-0.04901			8149.00000
0.00000			-0.04474			8248.00000
0.00000			-0.04160			8348.00000
0.00000			-0.03931			8449.00000
0.00000			-0.03984			8548.00000
0.75000			-0.96720			8940.00000
0.75000			-1.78164			9042.00000
0.75000			-2.14226			9141.00000
0.75000			-2.19245			9241.00000
0.75000			-2.17662			9342.00000
0.75000			-2.16450			9441.00000
0.75000			-2.14588			9541.00000
0.75000			-2.13924			9642.00000
0.75000			-2.13323			9741.00000
0.75000			-2.12801			9841.00000
-0.75000			0.34712			10763.00000
-0.75000			1.79105			10864.00000
-0.75000			1.97984			10965.00000
-0.75000			1.97285			11064.00000
-0.75000			1.95347			11164.00000
-0.75000			1.93959			11265.00000
-0.75000			1.92786			11364.00000
-0.75000			1.91966			11464.00000
-0.75000			1.90541			11565.00000
-0.75000			1.89875			11664.00000
0.00000			1.33004			12308.00000
0.00000			0.48704			12409.00000
0.00000			-0.01299			12509.00000
0.00000			-0.12826			12609.00000
0.00000			-0.11379			12710.00000
0.00000			-0.10632			12809.00000
0.00000			-0.10107			12909.00000
0.00000			-0.09735			13010.00000
0.00000			-0.09335			13109.00000
0.00000			-0.08998			13209.00000
1.00000			-1.19459			13657.00000
1.00000			-2.22938			13758.00000
1.00000			-2.93137			13859.00000
1.00000			-2.91875			13958.00000
1.00000			-2.89935			14058.00000
1.00000			-2.88460			14159.00000
1.00000			-2.87509			14258.00000
1.00000			-2.86695			14358.00000
1.00000			-2.85848			14459.00000
1.00000			-2.84481			14558.00000
-1.00000			1.19613			15577.00000
-1.00000			2.09822			15678.00000
-1.00000			2.54261			15779.00000
-1.00000			2.60889			15878.00000
-1.00000			2.58785			15978.00000
-1.00000			2.57124			16079.00000
-1.00000			2.55945			16178.00000
-1.00000			2.54922			16278.00000
-1.00000			2.53987			16379.00000
-1.00000			2.53172			16478.00000
0.00000			1.55631			17170.00000
0.00000			0.54649			17272.00000
0.00000			-0.01933			17371.00000
0.00000			-0.17735			17470.00000
0.00000			-0.16230			17572.00000
0.00000			-0.15388			17671.00000
0.00000			-0.14591			17771.00000
0.00000			-0.14138			17872.00000
0.00000			-0.13817			17971.00000
0.00000			-0.13430			18071.00000
1.25000			-2.30797			18556.00000
1.25000			-3.22806			18656.00000
1.25000			-3.63696			18756.00000
1.25000			-3.70719			18857.00000
1.25000			-3.66350			18956.00000
1.25000			-3.64903			19056.00000
1.25000			-3.63681			19156.00000
1.25000			-3.62736			19256.00000
1.25000			-3.61748			19356.00000
1.25000			-3.60901			19457.00000
-1.25000			2.28849			20561.00000
-1.25000			2.99119			20662.00000
-1.25000			3.24865			20762.00000
-1.25000			3.26011			20863.00000
-1.25000			3.23249			20962.00000
-1.25000			3.21248			21062.00000
-1.25000			3.18337			21163.00000
-1.25000			3.17217			21262.00000
-1.25000			3.16178			21362.00000
-1.25000			3.15356			21463.00000
0.00000			1.62877			22204.00000
0.00000			-0.03104			22304.00000
0.00000			-0.21249			22405.00000
0.00000			-0.21908			22504.00000
0.00000			-0.20203			22604.00000
0.00000			-0.19070			22705.00000
0.00000			-0.18376			22804.00000
0.00000			-0.17683			22905.00000
0.00000			-0.16705			23004.00000
0.00000			-0.16383			23104.00000
1.50000			-2.30546			23618.00000
1.50000			-4.23429			23719.00000
1.50000			-4.45609			23818.00000
1.50000			-4.45144			23918.00000
1.50000			-4.42547			24019.00000
1.50000			-4.40571			24118.00000
1.50000			-4.38850			24218.00000
1.50000			-4.37457			24319.00000
1.50000			-4.35381			24418.00000
1.50000			-4.34511			24518.00000
-1.50000			2.59554			25691.00000
-1.50000			3.45694			25791.00000
-1.50000			3.84204			25892.00000
-1.50000			3.90151			25991.00000
-1.50000			3.84689			26091.00000
-1.50000			3.82834			26192.00000
-1.50000			3.81313			26291.00000
-1.50000			3.79999			26391.00000
-1.50000			3.78888			26492.00000
-1.50000			3.77908			26591.00000
0.00000			1.16053			27363.00000
0.00000			0.25326			27464.00000
0.00000			-0.16408			27565.00000
0.00000			-0.25718			27664.00000
0.00000			-0.22880			27764.00000
0.00000			-0.21747			27865.00000
0.00000			-0.20905			27964.00000
0.00000			-0.20239			28064.00000
0.00000			-0.19593			28165.00000
0.00000			-0.19201			28264.00000
1.75000			-4.27891			28809.00000
1.75000			-5.00705			28910.00000
1.75000			-5.25905			29011.00000
1.75000			-5.26423			29110.00000
1.75000			-5.23218			29210.00000
1.75000			-5.20943			29311.00000
1.75000			-5.19126			29410.00000
1.75000			-5.17603			29510.00000
1.75000			-5.15207			29611.00000
1.75000			-5.14162			29710.00000
-1.75000			3.46355			30948.00000
-1.75000			4.21657			31049.00000
-1.75000			4.51872			31150.00000
-1.75000			4.53921			31249.00000
-1.75000			4.50714			31349.00000
-1.75000			4.46247			31450.00000
-1.75000			4.44686			31549.00000
-1.75000			4.43233			31649.00000
-1.75000			4.42007			31750.00000
-1.75000			4.40976			31849.00000
0.00000			1.24343			32658.00000
0.00000			0.29873			32758.00000
0.00000			-0.28453			32859.00000
0.00000			-0.27470			32958.00000
0.00000			-0.25660			33059.00000
0.00000			-0.24305			33158.00000
0.00000			-0.23373			33258.00000
0.00000			-0.22624			33359.00000
0.00000			-0.21885			33457.00000
0.00000			-0.21340			33558.00000
2.00000			-4.54620			34145.00000
2.00000			-5.54710			34246.00000
2.00000			-6.00657			34347.00000
2.00000			-6.05643			34446.00000
2.00000			-6.02728			34546.00000
2.00000			-6.00513			34647.00000
2.00000			-5.98595			34746.00000
2.00000			-5.96964			34846.00000
2.00000			-5.95642			34947.00000
2.00000			-5.94486			35046.00000
-2.00000			3.88152			36352.00000
-2.00000			4.74235			36453.00000
-2.00000			5.20627			36553.00000
-2.00000			5.17198			36654.00000
-2.00000			5.14267			36753.00000
-2.00000			5.12013			36853.00000
-2.00000			5.10191			36954.00000
-2.00000			5.08597			37053.00000
-2.00000			5.07207			37153.00000
-2.00000			5.06079			37254.00000
0.00000			0.87651			38091.00000
0.00000			0.08905			38193.00000
0.00000			-0.24984			38292.00000
0.00000			-0.31331			38393.00000
0.00000			-0.27787			38492.00000
0.00000			-0.26545			38592.00000
0.00000			-0.25444			38693.00000
0.00000			-0.24552			38792.00000
0.00000			-0.23838			38892.00000
0.00000			-0.23401			38993.00000
2.25000			-5.26883			39592.00000
2.25000			-6.33913			39693.00000
2.25000			-6.84497			39793.00000
2.25000			-6.94767			39894.00000
2.25000			-6.88187			39993.00000
2.25000			-6.85565			40093.00000
2.25000			-6.83476			40194.00000
2.25000			-6.81714			40293.00000
2.25000			-6.80244			40393.00000
2.25000			-6.78922			40494.00000
-2.25000			4.99048			41841.00000
-2.25000			5.63648			41942.00000
-2.25000			5.85832			42041.00000
-2.25000			5.85342			42141.00000
-2.25000			5.81808			42242.00000
-2.25000			5.79078			42341.00000
-2.25000			5.76828			42441.00000
-2.25000			5.73413			42542.00000
-2.25000			5.71978			42641.00000
-2.25000			5.70721			42741.00000
0.00000			0.53535			43600.00000
0.00000			-0.09340			43700.00000
0.00000			-0.31957			43800.00000
0.00000			-0.33314			43901.00000
0.00000			-0.30961			44000.00000
0.00000			-0.29350			44100.00000
0.00000			-0.27983			44201.00000
0.00000			-0.26171			44300.00000
0.00000			-0.25459			44399.00000
0.00000			-0.24836			44501.00000
2.50000			-6.22911			45136.00000
2.50000			-7.26973			45237.00000
2.50000			-7.74035			45337.00000
2.50000			-7.82722			45438.00000
2.50000			-7.75370			45537.00000
2.50000			-7.72660			45637.00000
2.50000			-7.70388			45738.00000
2.50000			-7.68478			45837.00000
2.50000			-7.66864			45937.00000
2.50000			-7.65354			46038.00000
-2.50000			5.02273			47452.00000
-2.50000			6.44371			47553.00000
-2.50000			6.56318			47654.00000
-2.50000			6.53797			47753.00000
-2.50000			6.50338			47853.00000
-2.50000			6.47616			47954.00000
-2.50000			6.45384			48053.00000
-2.50000			6.43476			48153.00000
-2.50000			6.41883			48254.00000
-2.50000			6.39244			48353.00000
0.00000			0.58482			49241.00000
0.00000			-0.07684			49342.00000
0.00000			-0.33402			49443.00000
0.00000			-0.36013			49542.00000
0.00000			-0.33691			49642.00000
0.00000			-0.31776			49742.00000
0.00000			-0.29116			49842.00000
0.00000			-0.28103			49942.00000
0.00000			-0.27256			50043.00000
0.00000			-0.26573			50142.00000
2.75000			-6.49559			50796.00000
2.75000			-8.52650			50898.00000
2.75000			-8.74392			50997.00000
2.75000			-8.72803			51097.00000
2.75000			-8.68621			51198.00000
2.75000			-8.65288			51297.00000
2.75000			-8.62563			51397.00000
2.75000			-8.60309			51498.00000
2.75000			-8.58404			51597.00000
2.75000			-8.55169			51697.00000
-2.75000			5.84263			53156.00000
-2.75000			6.75282			53257.00000
-2.75000			7.26186			53357.00000
-2.75000			7.22368			53458.00000
-2.75000			7.18932			53557.00000
-2.75000			7.16197			53657.00000
-2.75000			7.13978			53758.00000
-2.75000			7.11997			53857.00000
-2.75000			7.10280			53957.00000
-2.75000			7.08737			54058.00000
0.00000			0.63137			54969.00000
0.00000			-0.05660			55069.00000
0.00000			-0.33975			55170.00000
0.00000			-0.37871			55269.00000
0.00000			-0.35378			55369.00000
0.00000			-0.31761			55470.00000
0.00000			-0.30451			55569.00000
0.00000			-0.29418			55669.00000
0.00000			-0.28629			55770.00000
0.00000			-0.27865			55869.00000
3.00000			-8.32331			56542.00000
3.00000			-9.28266			56642.00000
3.00000			-9.65637			56743.00000
3.00000			-9.67776			56842.00000
3.00000			-9.62817			56942.00000
3.00000			-9.58961			57043.00000
3.00000			-9.53331			57142.00000
3.00000			-9.51064			57242.00000
3.00000			-9.49206			57343.00000
3.00000			-9.47422			57442.00000
-3.00000			6.72201			58943.00000
-3.00000			7.57197			59045.00000
-3.00000			7.94146			59144.00000
-3.00000			7.98879			59244.00000
-3.00000			7.91132			59345.00000
-3.00000			7.88327			59444.00000
-3.00000			7.86047			59544.00000
-3.00000			7.83959			59645.00000
-3.00000			7.82184			59744.00000
-3.00000			7.80611			59844.00000
0.00000			0.63466			60787.00000
0.00000			-0.06203			60888.00000
0.00000			-0.35302			60987.00000
0.00000			-0.40085			61087.00000
0.00000			-0.37775			61188.00000
0.00000			-0.33872			61287.00000
0.00000			-0.32489			61387.00000
0.00000			-0.31469			61488.00000
0.00000			-0.30428			61586.00000
0.00000			-0.29707			61688.00000
3.25000			-8.75671			62396.00000
3.25000			-9.97797			62496.00000
3.25000			-10.56666			62597.00000
3.25000			-10.65101			62696.00000
3.25000			-10.60454			62796.00000
3.25000			-10.56998			62897.00000
3.25000			-10.54107			62996.00000
3.25000			-10.51513			63097.00000
3.25000			-10.49186			63196.00000
3.25000			-10.47268			63296.00000
-3.25000			7.38633			64847.00000
-3.25000			8.27787			64947.00000
-3.25000			8.67746			65047.00000
-3.25000			8.73497			65148.00000
-3.25000			8.65253			65247.00000
-3.25000			8.62299			65347.00000
-3.25000			8.59708			65448.00000
-3.25000			8.57569			65547.00000
-3.25000			8.55666			65647.00000
-3.25000			8.53992			65748.00000
0.00000			0.92756			66708.00000
0.00000			0.09129			66810.00000
0.00000			-0.31326			66909.00000
0.00000			-0.40105			67009.00000
0.00000			-0.37471			67110.00000
0.00000			-0.35493			67209.00000
0.00000			-0.33952			67309.00000
0.00000			-0.32824			67410.00000
0.00000			-0.31876			67509.00000
0.00000			-0.30916			67609.00000
3.50000			-10.38705			68344.00000
3.50000			-11.32855			68443.00000
3.50000			-11.67594			68543.00000
3.50000			-11.68459			68644.00000
3.50000			-11.62786			68743.00000
3.50000			-11.58588			68843.00000
3.50000			-11.51920			68944.00000
3.50000			-11.49434			69043.00000
3.50000			-11.47147			69143.00000
3.50000			-11.45116			69244.00000
-3.50000			7.93090			70847.00000
-3.50000			8.92451			70949.00000
-3.50000			9.52308			71048.00000
-3.50000			9.48827			71148.00000
-3.50000			9.44705			71249.00000
-3.50000			9.41510			71348.00000
-3.50000			9.38685			71448.00000
-3.50000			9.36259			71549.00000
-3.50000			9.34258			71648.00000
-3.50000			9.32353			71748.00000
0.00000			0.36921			72734.00000
0.00000			-0.20573			72835.00000
0.00000			-0.41591			72934.00000
0.00000			-0.42833			73034.00000
0.00000			-0.39912			73135.00000
0.00000			-0.37685			73234.00000
0.00000			-0.34427			73334.00000
0.00000			-0.33352			73435.00000
0.00000			-0.32414			73534.00000
0.00000			-0.31542			73635.00000
3.75000			-11.74894			74397.00000
3.75000			-12.53071			74499.00000
3.75000			-12.77995			74598.00000
3.75000			-12.76595			74698.00000
3.75000			-12.70995			74799.00000
3.75000			-12.66561			74898.00000
3.75000			-12.62861			74998.00000
3.75000			-12.57133			75099.00000
3.75000			-12.54705			75198.00000
3.75000			-12.52470			75299.00000
-3.75000			9.48618			76951.00000
-3.75000			10.11609			77052.00000
-3.75000			10.31674			77151.00000
-3.75000			10.29653			77251.00000
-3.75000			10.24943			77352.00000
-3.75000			10.21427			77451.00000
-3.75000			10.18378			77551.00000
-3.75000			10.13698			77652.00000
-3.75000			10.11697			77751.00000
-3.75000			10.09892			77851.00000
0.00000			0.94571			78867.00000
0.00000			-0.32075			78969.00000
0.00000			-0.44582			79068.00000
0.00000			-0.43546			79168.00000
0.00000			-0.40729			79269.00000
0.00000			-0.38379			79368.00000
0.00000			-0.36692			79468.00000
0.00000			-0.35413			79569.00000
0.00000			-0.33264			79668.00000
0.00000			-0.32389			79768.00000
4.00000			-11.35477			80539.00000
4.00000			-13.66445			80640.00000
4.00000			-13.88966			80739.00000
4.00000			-13.84975			80839.00000
4.00000			-13.79023			80940.00000
4.00000			-13.74187			81039.00000
4.00000			-13.70228			81139.00000
4.00000			-13.66995			81240.00000
4.00000			-13.64080			81339.00000
4.00000			-13.59226			81439.00000
-4.00000			9.97350			83130.00000
-4.00000			10.79700			83231.00000
-4.00000			11.12594			83332.00000
-4.00000			11.14886			83431.00000
-4.00000			11.09817			83531.00000
-4.00000			11.02261			83632.00000
-4.00000			10.99411			83731.00000
-4.00000			10.97030			83832.00000
-4.00000			10.94821			83931.00000
-4.00000			10.92871			84031.00000
0.00000			0.37316			85072.00000
0.00000			-0.20457			85172.00000
0.00000			-0.43252			85272.00000
0.00000			-0.45922			85373.00000
0.00000			-0.43139			85472.00000
0.00000			-0.38434			85572.00000
0.00000			-0.36848			85673.00000
0.00000			-0.35747			85772.00000
0.00000			-0.34611			85872.00000
0.00000			-0.33580			85972.00000
4.25000			-12.96650			86772.00000
4.25000			-14.30396			86873.00000
4.25000			-14.92751			86972.00000
4.25000			-15.01425			87072.00000
4.25000			-14.95390			87173.00000
4.25000			-14.90481			87272.00000
4.25000			-14.86437			87372.00000
4.25000			-14.83039			87473.00000
4.25000			-14.79917			87572.00000
4.25000			-14.77192			87673.00000
-4.25000			10.40401			89417.00000
-4.25000			11.42696			89518.00000
-4.25000			12.00805			89617.00000
-4.25000			11.95829			89717.00000
-4.25000			11.91123			89818.00000
-4.25000			11.87423			89917.00000
-4.25000			11.84360			90017.00000
-4.25000			11.81610			90118.00000
-4.25000			11.79277			90217.00000
-4.25000			11.75303			90318.00000
0.00000			0.95229			91363.00000
0.00000			-0.34621			91464.00000
0.00000			-0.47724			91565.00000
0.00000			-0.46553			91664.00000
0.00000			-0.43323			91764.00000
0.00000			-0.40890			91865.00000
0.00000			-0.39080			91964.00000
0.00000			-0.37632			92064.00000
0.00000			-0.35204			92165.00000
0.00000			-0.34234			92264.00000
4.50000			-14.57916			93071.00000
4.50000			-15.77468			93172.00000
4.50000			-16.23571			93273.00000
4.50000			-16.25220			93372.00000
4.50000			-16.17632			93472.00000
4.50000			-16.06555			93573.00000
4.50000			-16.02498			93672.00000
4.50000			-15.98906			93772.00000
4.50000			-15.95689			93872.00000
4.50000			-15.92876			93972.00000
-4.50000			11.24583			95736.00000
-4.50000			12.33315			95835.00000
-4.50000			12.83663			95935.00000
-4.50000			12.91749			96036.00000
-4.50000			12.81157			96135.00000
-4.50000			12.77336			96235.00000
-4.50000			12.74056			96336.00000
-4.50000			12.71203			96435.00000
-4.50000			12.68579			96535.00000
-4.50000			12.66335			96636.00000
0.00000			0.08498			97711.00000
0.00000			-0.35161			97811.00000
0.00000			-0.48754			97913.00000
0.00000			-0.47942			98012.00000
0.00000			-0.44768			98112.00000
0.00000			-0.42234			98213.00000
0.00000			-0.40397			98312.00000
0.00000			-0.37258			98412.00000
0.00000			-0.36076			98513.00000
0.00000			-0.35149			98612.00000
4.75000			-15.14850			99450.00000
4.75000			-16.65142			99551.00000
4.75000			-17.53434			99651.00000
4.75000			-17.47203			99752.00000
4.75000			-17.39843			99851.00000
4.75000			-17.34070			99951.00000
4.75000			-17.29362			100052.00000
4.75000			-17.25225			100151.00000
4.75000			-17.21555			100251.00000
4.75000			-17.15600			100352.00000
-4.75000			12.22296			102168.00000
-4.75000			13.27732			102270.00000
-4.75000			13.75662			102369.00000
-4.75000			13.78271			102469.00000
-4.75000			13.73148			102570.00000
-4.75000			13.69154			102669.00000
-4.75000			13.65666			102769.00000
-4.75000			13.62697			102870.00000
-4.75000			13.60136			102969.00000
-4.75000			13.57811			103069.00000
0.00000			0.28659			104159.00000
0.00000			-0.27297			104259.00000
0.00000			-0.48468			104360.00000
0.00000			-0.49943			104459.00000
0.00000			-0.46643			104559.00000
0.00000			-0.41699			104660.00000
0.00000			-0.40058			104759.00000
0.00000			-0.38660			104859.00000
0.00000			-0.37426			104960.00000
0.00000			-0.36262			105059.00000
5.00000			-17.31461			105909.00000
5.00000			-18.43372			106009.00000
5.00000			-18.81901			106110.00000
5.00000			-18.79870			106209.00000
5.00000			-18.71234			106309.00000
5.00000			-18.64282			106410.00000
5.00000			-18.54074			106509.00000
5.00000			-18.49804			106609.00000
5.00000			-18.46099			106710.00000
5.00000			-18.42889			106809.00000
-5.00000			13.57321			108646.00000
-5.00000			14.47242			108746.00000
-5.00000			14.81282			108847.00000
-5.00000			14.81661			108946.00000
-5.00000			14.75282			109045.00000
-5.00000			14.66234			109147.00000
-5.00000			14.62692			109246.00000
-5.00000			14.59681			109347.00000
-5.00000			14.57017			109446.00000
-5.00000			14.54697			109546.00000
0.00000			0.12025			110647.00000
0.00000			-0.35855			110748.00000
0.00000			-0.51587			110849.00000
0.00000			-0.50655			110947.00000
0.00000			-0.47028			111048.00000
0.00000			-0.44381			111149.00000
0.00000			-0.42204			111248.00000
0.00000			-0.39173			111348.00000
0.00000			-0.37753			111449.00000
0.00000			-0.36732			111548.00000
5.25000			-18.66076			112423.00000
5.25000			-19.77512			112523.00000
5.25000			-20.16658			112623.00000
5.25000			-20.15899			112724.00000
5.25000			-20.06634			112823.00000
5.25000			-19.99272			112923.00000
5.25000			-19.88230			113024.00000
5.25000			-19.83728			113123.00000
5.25000			-19.79772			113223.00000
5.25000			-19.76135			113324.00000
-5.25000			13.66204			115214.00000
-5.25000			15.66457			115315.00000
-5.25000			15.84293			115416.00000
-5.25000			15.79195			115515.00000
-5.25000			15.73082			115615.00000
-5.25000			15.68329			115716.00000
-5.25000			15.64283			115815.00000
-5.25000			15.60764			115915.00000
-5.25000			15.55149			116016.00000
-5.25000			15.52698			116115.00000
0.00000			0.85072			117235.00000
0.00000			-0.40329			117336.00000
0.00000			-0.52949			117435.00000
0.00000			-0.51298			117535.00000
0.00000			-0.47749			117636.00000
0.00000			-0.44974			117735.00000
0.00000			-0.42966			117835.00000
0.00000			-0.41279			117936.00000
0.00000			-0.38391			118034.00000
0.00000			-0.37220			118136.00000
5.50000			-19.91623			119026.00000
5.50000			-21.10225			119128.00000
5.50000			-21.53538			119227.00000
5.50000			-21.52538			119327.00000
5.50000			-21.42448			119428.00000
5.50000			-21.34518			119527.00000
5.50000			-21.22330			119627.00000
5.50000			-21.17371			119728.00000
5.50000			-21.13098			119827.00000
5.50000			-21.09135			119928.00000
-5.50000			15.56649			121849.00000
-5.50000			16.51305			121949.00000
-5.50000			16.87967			122049.00000
-5.50000			16.89045			122150.00000
-5.50000			16.82103			122249.00000
-5.50000			16.71901			122349.00000
-5.50000			16.68085			122450.00000
-5.50000			16.64785			122549.00000
-5.50000			16.61849			122649.00000
-5.50000			16.59107			122750.00000
0.00000			0.47013			123900.00000
0.00000			-0.18203			124000.00000
0.00000			-0.47633			124100.00000
0.00000			-0.51175			124201.00000
0.00000			-0.47857			124300.00000
0.00000			-0.45258			124400.00000
0.00000			-0.43200			124501.00000
0.00000			-0.41495			124600.00000
0.00000			-0.39992			124700.00000
0.00000			-0.38731			124801.00000
5.75000			-21.34149			125716.00000
5.75000			-22.54249			125817.00000
5.75000			-22.98869			125916.00000
5.75000			-23.00379			126016.00000
5.75000			-22.89956			126117.00000
5.75000			-22.74013			126216.00000
5.75000			-22.67938			126316.00000
5.75000			-22.62712			126417.00000
5.75000			-22.58074			126516.00000
5.75000			-22.53844			126616.00000
-5.75000			16.04720			128574.00000
-5.75000			17.30807			128676.00000
-5.75000			18.02663			128775.00000
-5.75000			17.95884			128875.00000
-5.75000			17.89349			128976.00000
-5.75000			17.84244			129075.00000
-5.75000			17.79946			129175.00000
-5.75000			17.76108			129276.00000
-5.75000			17.72735			129375.00000
-5.75000			17.67296			129475.00000
0.00000			0.15395			130638.00000
0.00000			-0.34435			130739.00000
0.00000			-0.53530			130839.00000
0.00000			-0.54644			130940.00000
0.00000			-0.50798			131038.00000
0.00000			-0.47689			131139.00000
0.00000			-0.43323			131240.00000
0.00000			-0.41639			131339.00000
0.00000			-0.40241			131439.00000
0.00000			-0.39002			131540.00000
6.00000			-23.20012			132461.00000
6.00000			-24.23277			132563.00000
6.00000			-24.51285			132662.00000
6.00000			-24.42269			132762.00000
6.00000			-24.31018			132863.00000
6.00000			-24.22191			132962.00000
6.00000			-24.14862			133062.00000
6.00000			-24.08540			133163.00000
6.00000			-23.98278			133262.00000
6.00000			-23.93904			133362.00000
-6.00000			18.11483			135369.00000
-6.00000			18.95932			135471.00000
-6.00000			19.21001			135570.00000
-6.00000			19.15736			135670.00000
-6.00000			19.08213			135771.00000
-6.00000			19.02417			135870.00000
-6.00000			18.97540			135971.00000
-6.00000			18.89708			136071.00000
-6.00000			18.86410			136170.00000
-6.00000			18.83573			136271.00000
0.00000			0.45643			137469.00000
0.00000			-0.48546			137570.00000
0.00000			-0.55880			137670.00000
0.00000			-0.53319			137771.00000
0.00000			-0.49705			137870.00000
0.00000			-0.46975			137969.00000
0.00000			-0.44808			138071.00000
0.00000			-0.42933			138170.00000
0.00000			-0.39960			138270.00000
0.00000			-0.38803			138371.00000
6.25000			-23.05962			139311.00000
6.25000			-25.88793			139412.00000
6.25000			-26.09319			139513.00000
6.25000			-25.99046			139612.00000
6.25000			-25.87481			139712.00000
6.25000			-25.78219			139813.00000
6.25000			-25.70450			139912.00000
6.25000			-25.63754			140012.00000
6.25000			-25.57928			140113.00000
6.25000			-25.47967			140212.00000
-6.25000			19.24314			142237.00000
-6.25000			20.15891			142339.00000
-6.25000			20.44010			142438.00000
-6.25000			20.38694			142538.00000
-6.25000			20.30505			142639.00000
-6.25000			20.24138			142738.00000
-6.25000			20.18988			142838.00000
-6.25000			20.10741			142939.00000
-6.25000			20.07355			143038.00000
-6.25000			20.04281			143139.00000
0.00000			-0.09295			144343.00000
0.00000			-0.45630			144443.00000
0.00000			-0.56755			144543.00000
0.00000			-0.54978			144644.00000
0.00000			-0.51205			144743.00000
0.00000			-0.48126			144843.00000
0.00000			-0.45849			144944.00000
0.00000			-0.42056			145043.00000
0.00000			-0.40616			145144.00000
0.00000			-0.39281			145243.00000
6.50000			-25.98797			146208.00000
6.50000			-27.22705			146309.00000
6.50000			-27.64130			146408.00000
6.50000			-27.58289			146508.00000
6.50000			-27.44668			146609.00000
6.50000			-27.34159			146708.00000
6.50000			-27.17892			146809.00000
6.50000			-27.11372			146908.00000
6.50000			-27.05669			147008.00000
6.50000			-27.00307			147109.00000
-6.50000			19.30100			149169.00000
-6.50000			21.53699			149270.00000
-6.50000			21.71243			149371.00000
-6.50000			21.63258			149470.00000
-6.50000			21.55260			149570.00000
-6.50000			21.48963			149671.00000
-6.50000			21.43768			149770.00000
-6.50000			21.39286			149870.00000
-6.50000			21.31794			149971.00000
-6.50000			21.28571			150070.00000
0.00000			0.59201			151281.00000
0.00000			-0.48330			151383.00000
0.00000			-0.58472			151482.00000
0.00000			-0.55898			151582.00000
0.00000			-0.51876			151683.00000
0.00000			-0.48779			151781.00000
0.00000			-0.46281			151882.00000
0.00000			-0.44348			151983.00000
0.00000			-0.41214			152082.00000
0.00000			-0.39889			152182.00000
6.75000			-27.50957			153160.00000
6.75000			-28.85291			153262.00000
6.75000			-29.33777			153361.00000
6.75000			-29.31650			153461.00000
6.75000			-29.17311			153562.00000
6.75000			-29.05580			153661.00000
6.75000			-28.87712			153761.00000
6.75000			-28.80573			153862.00000
6.75000			-28.74340			153961.00000
6.75000			-28.68581			154062.00000
-6.75000			21.35132			156159.00000
-6.75000			22.54520			156260.00000
-6.75000			23.01058			156360.00000
-6.75000			23.01493			156461.00000
-6.75000			22.91886			156560.00000
-6.75000			22.78341			156660.00000
-6.75000			22.73186			156761.00000
-6.75000			22.68754			156860.00000
-6.75000			22.64778			156960.00000
-6.75000			22.61169			157061.00000
0.00000			0.24600			158283.00000
0.00000			-0.31587			158384.00000
0.00000			-0.55448			158483.00000
0.00000			-0.58617			158584.00000
0.00000			-0.51067			158683.00000
0.00000			-0.48244			158783.00000
0.00000			-0.45801			158883.00000
0.00000			-0.43677			158983.00000
0.00000			-0.42053			159083.00000
0.00000			-0.40686			159184.00000
7.00000			-29.70358			160179.00000
7.00000			-30.81123			160279.00000
7.00000			-31.10023			160380.00000
7.00000			-30.97315			160479.00000
7.00000			-30.82309			160579.00000
7.00000			-30.70566			160680.00000
7.00000			-30.60716			160779.00000
7.00000			-30.52220			160879.00000
7.00000			-30.38222			160980.00000
7.00000			-30.32376			161079.00000
-7.00000			22.67480			163209.00000
-7.00000			23.92225			163309.00000
-7.00000			24.42121			163410.00000
-7.00000			24.43342			163509.00000
-7.00000			24.24692			163609.00000
-7.00000			24.18227			163710.00000
-7.00000			24.12735			163809.00000
-7.00000			24.07922			163909.00000
-7.00000			24.03631			164010.00000
-7.00000			23.99763			164109.00000
0.00000			-0.18283			165370.00000
0.00000			-0.49833			165470.00000
0.00000			-0.59175			165570.00000
0.00000			-0.56931			165671.00000
0.00000			-0.52726			165770.00000
0.00000			-0.49712			165869.00000
0.00000			-0.47193			165971.00000
0.00000			-0.44989			166070.00000
0.00000			-0.41815			166170.00000
0.00000			-0.40394			166271.00000
7.25000			-29.98112			167284.00000
7.25000			-31.92041			167385.00000
7.25000			-32.91616			167484.00000
7.25000			-32.76297			167584.00000
7.25000			-32.61291			167685.00000
7.25000			-32.49186			167784.00000
7.25000			-32.39099			167884.00000
7.25000			-32.30367			167985.00000
7.25000			-32.22641			168084.00000
7.25000			-32.09558			168185.00000
-7.25000			23.72459			170355.00000
-7.25000			25.19687			170457.00000
-7.25000			25.83850			170556.00000
-7.25000			25.80956			170656.00000
-7.25000			25.72081			170757.00000
-7.25000			25.64822			170856.00000
-7.25000			25.58813			170956.00000
-7.25000			25.53504			171057.00000
-7.25000			25.48902			171156.00000
-7.25000			25.44905			171257.00000
0.00000			-0.02446			172516.00000
0.00000			-0.44916			172616.00000
0.00000			-0.59927			172717.00000
0.00000			-0.59095			172816.00000
0.00000			-0.54814			172916.00000
0.00000			-0.51225			173017.00000
0.00000			-0.45884			173116.00000
0.00000			-0.44067			173215.00000
0.00000			-0.42295			173317.00000
0.00000			-0.40875			173416.00000
7.50000			-33.12084			174442.00000
7.50000			-34.42864			174544.00000
7.50000			-34.81094			174643.00000
7.50000			-34.67815			174743.00000
7.50000			-34.49796			174844.00000
7.50000			-34.35876			174943.00000
7.50000			-34.24397			175043.00000
7.50000			-34.05624			175144.00000
7.50000			-33.97945			175243.00000
7.50000			-33.90980			175343.00000
-7.50000			25.96314			177528.00000
-7.50000			27.11088			177629.00000
-7.50000			27.50590			177729.00000
-7.50000			27.45038			177830.00000
-7.50000			27.33491			177929.00000
-7.50000			27.24880			178029.00000
-7.50000			27.11789			178130.00000
-7.50000			27.06506			178229.00000
-7.50000			27.01695			178329.00000
-7.50000			26.97470			178430.00000
0.00000			0.48478			179700.00000
0.00000			-0.52175			179802.00000
0.00000			-0.61249			179900.00000
0.00000			-0.58286			180001.00000
0.00000			-0.53995			180102.00000
0.00000			-0.50624			180201.00000
0.00000			-0.47885			180302.00000
0.00000			-0.45665			180401.00000
0.00000			-0.42347			180501.00000
0.00000			-0.40857			180602.00000
7.75000			-32.89480			181640.00000
7.75000			-36.50140			181740.00000
7.75000			-36.80636			181841.00000
7.75000			-36.66075			181940.00000
7.75000			-36.47707			182040.00000
7.75000			-36.33093			182141.00000
7.75000			-36.20923			182240.00000
7.75000			-36.10399			182340.00000
7.75000			-35.92973			182441.00000
7.75000			-35.85575			182540.00000
-7.75000			26.95922			184766.00000
-7.75000			28.46043			184868.00000
-7.75000			29.08373			184967.00000
-7.75000			29.11291			185067.00000
-7.75000			28.88765			185168.00000
-7.75000			28.80800			185267.00000
-7.75000			28.74036			185367.00000
-7.75000			28.68084			185468.00000
-7.75000			28.62946			185567.00000
-7.75000			28.58264			185667.00000
0.00000			0.02840			186958.00000
0.00000			-0.42845			187059.00000
0.00000			-0.60500			187158.00000
0.00000			-0.61010			187260.00000
0.00000			-0.56536			187359.00000
0.00000			-0.49765			187459.00000
0.00000			-0.47136			187560.00000
0.00000			-0.45070			187659.00000
0.00000			-0.43272			187759.00000
0.00000			-0.41606			187860.00000
8.00000			-35.85600			188910.00000
8.00000			-37.90521			189011.00000
8.00000			-38.75777			189110.00000
8.00000			-38.55090			189210.00000
8.00000			-38.37169			189311.00000
8.00000			-38.22644			189410.00000
8.00000			-38.10353			189510.00000
8.00000			-37.99680			189611.00000
8.00000			-37.90325			189710.00000
8.00000			-37.82005			189810.00000
-8.00000			28.61267			192067.00000
-8.00000			30.18469			192168.00000
-8.00000			30.83134			192267.00000
-8.00000			30.83813			192367.00000
-8.00000			30.59024			192468.00000
-8.00000			30.50526			192567.00000
-8.00000			30.43383			192667.00000
-8.00000			30.37119			192768.00000
-8.00000			30.31554			192867.00000
-8.00000			30.26628			192967.00000
0.00000			0.11675			194282.00000
0.00000			-0.37582			194383.00000
0.00000			-0.58683			194482.00000
0.00000			-0.57446			194582.00000
0.00000			-0.53482			194683.00000
0.00000			-0.50275			194782.00000
0.00000			-0.47653			194882.00000
0.00000			-0.45462			194982.00000
0.00000			-0.43408			195082.00000
0.00000			-0.41762			195182.00000
8.25000			-39.35440			196264.00000
8.25000			-40.65652			196365.00000
8.25000			-41.01615			196465.00000
8.25000			-40.87672			196566.00000
8.25000			-40.66380			196665.00000
8.25000			-40.49326			196765.00000
8.25000			-40.23008			196866.00000
8.25000			-40.12295			196965.00000
8.25000			-40.02774			197065.00000
8.25000			-39.94334			197166.00000
-8.25000			30.39414			199471.00000
-8.25000			31.98891			199571.00000
-8.25000			32.63631			199672.00000
-8.25000			32.52275			199771.00000
-8.25000			32.40984			199871.00000
-8.25000			32.31951			199972.00000
-8.25000			32.24370			200071.00000
-8.25000			32.17604			200171.00000
-8.25000			32.11712			200272.00000
-8.25000			32.06428			200371.00000
0.00000			0.30504			201692.00000
0.00000			-0.56752			201793.00000
0.00000			-0.62998			201894.00000
0.00000			-0.59198			201993.00000
0.00000			-0.54875			202093.00000
0.00000			-0.51353			202194.00000
0.00000			-0.48460			202293.00000
0.00000			-0.46138			202393.00000
0.00000			-0.44217			202494.00000
0.00000			-0.40937			202593.00000
8.50000			-40.73079			203674.00000
8.50000			-42.60981			203775.00000
8.50000			-43.24467			203874.00000
8.50000			-43.09356			203974.00000
8.50000			-42.83198			204075.00000
8.50000			-42.48096			204174.00000
8.50000			-42.34574			204274.00000
8.50000			-42.22884			204375.00000
8.50000			-42.12500			204474.00000
8.50000			-42.03158			204574.00000
-8.50000			31.08915			206887.00000
-8.50000			34.42638			206988.00000
-8.50000			34.65840			207088.00000
-8.50000			34.50497			207189.00000
-8.50000			34.36897			207288.00000
-8.50000			34.26333			207388.00000
-8.50000			34.17487			207489.00000
-8.50000			34.09889			207588.00000
-8.50000			33.97480			207688.00000
-8.50000			33.92214			207789.00000
0.00000			-0.06696			209139.00000
0.00000			-0.46701			209241.00000
0.00000			-0.61541			209340.00000
0.00000			-0.61940			209440.00000
0.00000			-0.53326			209541.00000
0.00000			-0.50124			209639.00000
0.00000			-0.47513			209740.00000
0.00000			-0.45404			209841.00000
0.00000			-0.43378			209940.00000
0.00000			-0.41508			210041.00000
8.75000			-43.41559			211139.00000
8.75000			-45.09764			211241.00000
8.75000			-45.64267			211340.00000
8.75000			-45.52135			211440.00000
8.75000			-45.26811			211541.00000
8.75000			-45.06547			211640.00000
8.75000			-44.75619			211740.00000
8.75000			-44.63298			211841.00000
8.75000			-44.52339			211940.00000
8.75000			-44.42536			212040.00000
-8.75000			34.94516			214382.00000
-8.75000			36.28910			214484.00000
-8.75000			36.69848			214583.00000
-8.75000			36.58515			214683.00000
-8.75000			36.42986			214784.00000
-8.75000			36.31180			214883.00000
-8.75000			36.21446			214983.00000
-8.75000			36.05814			215084.00000
-8.75000			35.99367			215183.00000
-8.75000			35.93545			215283.00000
0.00000			0.13289			216629.00000
0.00000			-0.38223			216730.00000
0.00000			-0.60485			216831.00000
0.00000			-0.59148			216929.00000
0.00000			-0.54764			217030.00000
0.00000			-0.51285			217131.00000
0.00000			-0.48402			217230.00000
0.00000			-0.46138			217330.00000
0.00000			-0.44032			217431.00000
0.00000			-0.42257			217530.00000
9.00000			-44.92761			218636.00000
9.00000			-47.19775			218737.00000
9.00000			-48.07698			218838.00000
9.00000			-47.97631			218937.00000
9.00000			-47.44151			219037.00000
9.00000			-47.25707			219138.00000
9.00000			-47.09970			219237.00000
9.00000			-46.96384			219337.00000
9.00000			-46.84483			219438.00000
9.00000			-46.73680			219537.00000
-9.00000			35.81368			221897.00000
-9.00000			37.88515			221999.00000
-9.00000			38.77770			222098.00000
-9.00000			38.80975			222198.00000
-9.00000			38.47002			222299.00000
-9.00000			38.35593			222398.00000
-9.00000			38.25984			222499.00000
-9.00000			38.17665			222598.00000
-9.00000			38.10466			222698.00000
-9.00000			38.03981			222799.00000
0.00000			-0.12862			224168.00000
0.00000			-0.49823			224269.00000
0.00000			-0.63250			224369.00000
0.00000			-0.62506			224470.00000
0.00000			-0.57587			224569.00000
0.00000			-0.50064			224668.00000
0.00000			-0.47468			224770.00000
0.00000			-0.45107			224869.00000
0.00000			-0.43071			224969.00000
0.00000			-0.41382			225070.00000
9.25000			-47.77045			226205.00000
9.25000			-49.87365			226306.00000
9.25000			-50.69416			226405.00000
9.25000			-50.68061			226505.00000
9.25000			-50.14828			226606.00000
9.25000			-49.95280			226705.00000
9.25000			-49.78686			226805.00000
9.25000			-49.64387			226906.00000
9.25000			-49.51641			227005.00000
9.25000			-49.40141			227105.00000
-9.25000			39.36940			229514.00000
-9.25000			40.72886			229614.00000
-9.25000			41.13167			229715.00000
-9.25000			40.98181			229814.00000
-9.25000			40.80733			229914.00000
-9.25000			40.67517			230015.00000
-9.25000			40.56410			230114.00000
-9.25000			40.38707			230214.00000
-9.25000			40.31451			230315.00000
-9.25000			40.24807			230414.00000
0.00000			0.29131			231783.00000
0.00000			-0.57780			231884.00000
0.00000			-0.64765			231985.00000
0.00000			-0.60947			232084.00000
0.00000			-0.56116			232185.00000
0.00000			-0.52293			232284.00000
0.00000			-0.49232			232384.00000
0.00000			-0.46641			232485.00000
0.00000			-0.42418			232584.00000
0.00000			-0.40774			232684.00000
9.50000			-51.33498			233821.00000
9.50000			-53.09088			233922.00000
9.50000			-53.53972			234023.00000
9.50000			-53.23425			234122.00000
9.50000			-52.92728			234222.00000
9.50000			-52.69338			234323.00000
9.50000			-52.49880			234422.00000
9.50000			-52.18552			234522.00000
9.50000			-52.05718			234623.00000
9.50000			-51.94111			234722.00000
-9.50000			39.17712			237150.00000
-9.50000			43.26785			237250.00000
-9.50000			43.54435			237351.00000
-9.50000			43.28748			237450.00000
-9.50000			43.09642			237550.00000
-9.50000			42.95617			237651.00000
-9.50000			42.84000			237750.00000
-9.50000			42.74023			237850.00000
-9.50000			42.57696			237951.00000
-9.50000			42.50686			238050.00000
0.00000			0.21855			239438.00000
0.00000			-0.58788			239539.00000
0.00000			-0.64966			239639.00000
0.00000			-0.60950			239739.00000
0.00000			-0.55991			239839.00000
0.00000			-0.52002			239939.00000
0.00000			-0.48915			240040.00000
0.00000			-0.46238			240139.00000
0.00000			-0.42227			240239.00000
0.00000			-0.40545			240340.00000
9.75000			-53.83933			241500.00000
9.75000			-55.89610			241600.00000
9.75000			-56.53654			241701.00000
9.75000			-56.32742			241800.00000
9.75000			-55.99018			241900.00000
9.75000			-55.51516			242001.00000
9.75000			-55.33273			242100.00000
9.75000			-55.17355			242200.00000
9.75000			-55.03299			242301.00000
9.75000			-54.90722			242400.00000
-9.75000			43.46651			244851.00000
-9.75000			45.43732			244953.00000
-9.75000			46.15176			245052.00000
-9.75000			46.05670			245152.00000
-9.75000			45.82755			245253.00000
-9.75000			45.52990			245352.00000
-9.75000			45.41639			245452.00000
-9.75000			45.31828			245553.00000
-9.75000			45.23089			245652.00000
-9.75000			45.15244			245753.00000
0.00000			-0.01842			247146.00000
0.00000			-0.45929			247247.00000
0.00000			-0.63672			247346.00000
0.00000			-0.64562			247446.00000
0.00000			-0.55018			247547.00000
0.00000			-0.51384			247646.00000
0.00000			-0.48367			247746.00000
0.00000			-0.45826			247847.00000
0.00000			-0.43627			247946.00000
0.00000			-0.41744			248046.00000
10.00000			-57.50736			249225.00000
10.00000			-59.22257			249326.00000
10.00000			-59.61292			249427.00000
10.00000			-59.25449			249526.00000
10.00000			-58.91195			249626.00000
10.00000			-58.65032			249727.00000
10.00000			-58.43240			249826.00000
10.00000			-58.08240			249926.00000
10.00000			-57.93784			250027.00000
10.00000			-57.80729			250126.00000
-10.00000			45.22614			252622.00000
-10.00000			47.70420			252721.00000
-10.00000			48.78008			252821.00000
-10.00000			48.46489			252922.00000
-10.00000			48.27429			253021.00000
-10.00000			48.12508			253121.00000
-10.00000			47.99916			253222.00000
-10.00000			47.88962			253321.00000
-10.00000			47.79559			253421.00000
-10.00000			47.70970			253522.00000
0.00000			-0.29310			254940.00000
0.00000			-0.57670			255040.00000
0.00000			-0.65610			255141.00000
0.00000			-0.62056			255240.00000
0.00000			-0.56943			255340.00000
0.00000			-0.52894			255441.00000
0.00000			-0.49529			255540.00000
0.00000			-0.44253			255639.00000
0.00000			-0.42295			255741.00000
0.00000			-0.40525			255840.00000
10.25000			-58.19246			257012.00000
10.25000			-61.47376			257114.00000
10.25000			-62.86272			257213.00000
10.25000			-62.54846			257313.00000
10.25000			-62.21655			257414.00000
10.25000			-61.94884			257513.00000
10.25000			-61.72494			257614.00000
10.25000			-61.53285			257713.00000
10.25000			-61.36330			257813.00000
10.25000			-61.21183			257914.00000
-10.25000			49.32629			260402.00000
-10.25000			51.28538			260502.00000
-10.25000			51.83992			260603.00000
-10.25000			51.59186			260702.00000
-10.25000			51.34033			260802.00000
-10.25000			51.16016			260902.00000
-10.25000			51.01064			261002.00000
-10.25000			50.77238			261102.00000
-10.25000			50.67363			261203.00000
-10.25000			50.58442			261302.00000
0.00000			-0.00603			262745.00000
0.00000			-0.44074			262846.00000
0.00000			-0.64826			262947.00000
0.00000			-0.60078			263046.00000
0.00000			-0.55300			263146.00000
0.00000			-0.51439			263247.00000
0.00000			-0.48252			263346.00000
0.00000			-0.45781			263446.00000
0.00000			-0.43541			263547.00000
0.00000			-0.39648			263646.00000
10.50000			-62.03025			264837.00000
10.50000			-65.11440			264937.00000
10.50000			-66.35204			265038.00000
10.50000			-66.21918			265137.00000
10.50000			-65.41177			265237.00000
10.50000			-65.13958			265338.00000
10.50000			-64.90964			265437.00000
10.50000			-64.71045			265537.00000
10.50000			-64.53275			265638.00000
10.50000			-64.37440			265737.00000
-10.50000			50.91889			268268.00000
-10.50000			53.65305			268370.00000
-10.50000			54.80416			268469.00000
-10.50000			54.70938			268569.00000
-10.50000			54.14077			268670.00000
-10.50000			53.97018			268769.00000
-10.50000			53.82438			268869.00000
-10.50000			53.69908			268970.00000
-10.50000			53.58926			269069.00000
-10.50000			53.49103			269169.00000
0.00000			-0.26442			270612.00000
0.00000			-0.56373			270713.00000
0.00000			-0.65864			270812.00000
0.00000			-0.62973			270912.00000
0.00000			-0.57690			271013.00000
0.00000			-0.53286			271112.00000
0.00000			-0.46789			271212.00000
0.00000			-0.44356			271313.00000
0.00000			-0.42342			271412.00000
0.00000			-0.40442			271512.00000
10.75000			-67.20618			272728.00000
10.75000			-69.48930			272829.00000
10.75000			-70.14217			272929.00000
10.75000			-69.82950			273029.00000
10.75000			-69.39780			273129.00000
10.75000			-69.06567			273230.00000
10.75000			-68.55684			273329.00000
10.75000			-68.35095			273429.00000
10.75000			-68.17078			273530.00000
10.75000			-68.00884			273629.00000
-10.75000			54.29427			276191.00000
-10.75000			57.02731			276291.00000
-10.75000			58.12517			276392.00000
-10.75000			57.70590			276491.00000
-10.75000			57.47586			276591.00000
-10.75000			57.29142			276692.00000
-10.75000			57.13647			276791.00000
-10.75000			57.00154			276891.00000
-10.75000			56.88230			276992.00000
-10.75000			56.77515			277091.00000
0.00000			-0.18271			278571.00000
0.00000			-0.51172			278671.00000
0.00000			-0.63667			278771.00000
0.00000			-0.58652			278872.00000
0.00000			-0.53844			278971.00000
0.00000			-0.50024			279071.00000
0.00000			-0.47015			279172.00000
0.00000			-0.44439			279271.00000
0.00000			-0.42167			279370.00000
0.00000			-0.40198			279472.00000
11.00000			-68.53245			280692.00000
11.00000			-72.26066			280793.00000
11.00000			-73.74684			280892.00000
11.00000			-73.15458			280992.00000
11.00000			-72.75267			281093.00000
11.00000			-72.43456			281192.00000
11.00000			-72.16577			281292.00000
11.00000			-71.93320			281393.00000
11.00000			-71.73061			281492.00000
11.00000			-71.38151			281593.00000
-11.00000			58.93782			284160.00000
-11.00000			61.12615			284260.00000
-11.00000			61.64745			284360.00000
-11.00000			61.18235			284461.00000
-11.00000			60.84732			284560.00000
-11.00000			60.62654			284660.00000
-11.00000			60.28589			284761.00000
-11.00000			60.14880			284860.00000
-11.00000			60.02707			284960.00000
-11.00000			59.91705			285061.00000
0.00000			-0.31175			286539.00000
0.00000			-0.57242			286641.00000
0.00000			-0.65306			286740.00000
0.00000			-0.62367			286841.00000
0.00000			-0.56878			286940.00000
0.00000			-0.52407			287040.00000
0.00000			-0.45982			287141.00000
0.00000			-0.43561			287240.00000
0.00000			-0.41317			287340.00000
0.00000			-0.39246			287441.00000
