# Acquired on 28/08/2024 16:53:57 
# SPIDER: CNT0771454E-1_24h_PostRodaggio_2024-08-28
# TRACKING MEASUREMENT

  # pos [mm]    force [N]     time [ms]
     0.49072     -0.12390     243.00000
     0.49072     -0.53799     343.00000
     0.49072     -0.76976     443.00000
     0.49072     -0.71784     544.00000
     0.49072     -0.69498     643.00000
     0.49072     -0.67910     744.00000
     0.49072     -0.66683     843.00000
     0.49072     -0.65605     943.00000
     0.49072     -0.64665    1044.00000
     0.49072     -0.63857    1143.00000
    -0.49316      0.65449    1955.00000
    -0.49316      1.03049    2056.00000
    -0.49316      1.10832    2157.00000
    -0.49316      1.07309    2256.00000
    -0.49316      1.04832    2356.00000
    -0.49316      1.03106    2457.00000
    -0.49316      1.01771    2556.00000
    -0.49316      0.99604    2656.00000
    -0.49316      0.98937    2757.00000
    -0.49316      0.98337    2856.00000
    -0.00488      0.61002    3451.00000
    -0.00488      0.14706    3552.00000
    -0.00488      0.01949    3653.00000
    -0.00488      0.03643    3752.00000
    -0.00488      0.05180    3851.00000
    -0.00488      0.06142    3953.00000
    -0.00488      0.06999    4052.00000
    -0.00488      0.07971    4152.00000
    -0.00488      0.08417    4253.00000
    -0.00488      0.08717    4352.00000
     0.99365     -0.33330    4757.00000
     0.99365     -1.34424    4858.00000
     0.99365     -1.32668    4958.00000
     0.99365     -1.27189    5059.00000
     0.99365     -1.23499    5158.00000
     0.99365     -1.20784    5258.00000
     0.99365     -1.18758    5359.00000
     0.99365     -1.17113    5458.00000
     0.99365     -1.14373    5558.00000
     0.99365     -1.13271    5659.00000
    -0.99365      0.95198    6604.00000
    -0.99365      1.89050    6705.00000
    -0.99365      1.88517    6806.00000
    -0.99365      1.83241    6905.00000
    -0.99365      1.79662    7004.00000
    -0.99365      1.77136    7106.00000
    -0.99365      1.75107    7205.00000
    -0.99365      1.73464    7305.00000
    -0.99365      1.70798    7406.00000
    -0.99365      1.69701    7505.00000
    -0.00488      1.03924    8174.00000
    -0.00488      0.28241    8275.00000
    -0.00488     -0.01357    8375.00000
    -0.00488      0.01723    8476.00000
    -0.00488      0.03781    8575.00000
    -0.00488      0.05302    8675.00000
    -0.00488      0.06320    8776.00000
    -0.00488      0.07158    8875.00000
    -0.00488      0.07979    8975.00000
    -0.00488      0.09063    9076.00000
     1.49414     -1.47167    9534.00000
     1.49414     -1.86007    9634.00000
     1.49414     -1.87809    9735.00000
     1.49414     -1.80882    9836.00000
     1.49414     -1.76117    9935.00000
     1.49414     -1.72618   10035.00000
     1.49414     -1.67731   10136.00000
     1.49414     -1.65932   10235.00000
     1.49414     -1.64287   10335.00000
     1.49414     -1.62828   10436.00000
    -1.49170      1.99164   11497.00000
    -1.49170      2.49823   11598.00000
    -1.49170      2.58868   11698.00000
    -1.49170      2.46733   11799.00000
    -1.49170      2.43059   11898.00000
    -1.49170      2.40171   11998.00000
    -1.49170      2.38050   12099.00000
    -1.49170      2.36145   12198.00000
    -1.49170      2.34433   12298.00000
    -1.49170      2.32842   12399.00000
    -0.00488      1.12453   13114.00000
    -0.00488     -0.05226   13216.00000
    -0.00488     -0.06247   13315.00000
    -0.00488     -0.01989   13414.00000
    -0.00488      0.00782   13515.00000
    -0.00488      0.02609   13615.00000
    -0.00488      0.04094   13716.00000
    -0.00488      0.05251   13815.00000
    -0.00488      0.07085   13915.00000
    -0.00488      0.07687   14016.00000
     1.99463     -1.55618   14517.00000
     1.99463     -2.43612   14618.00000
     1.99463     -2.38860   14717.00000
     1.99463     -2.31606   14817.00000
     1.99463     -2.26836   14918.00000
     1.99463     -2.23242   15017.00000
     1.99463     -2.20392   15117.00000
     1.99463     -2.17950   15218.00000
     1.99463     -2.14027   15317.00000
     1.99463     -2.12480   15417.00000
    -1.99463      2.88301   16564.00000
    -1.99463      3.20979   16666.00000
    -1.99463      3.20123   16765.00000
    -1.99463      3.12215   16865.00000
    -1.99463      3.06837   16966.00000
    -1.99463      3.02892   17065.00000
    -1.99463      2.97316   17165.00000
    -1.99463      2.95174   17266.00000
    -1.99463      2.93207   17365.00000
    -1.99463      2.91527   17465.00000
    -0.00488      0.19863   18231.00000
    -0.00488     -0.09527   18332.00000
    -0.00488     -0.10556   18431.00000
    -0.00488     -0.05842   18531.00000
    -0.00488     -0.02470   18631.00000
    -0.00488     -0.00144   18731.00000
    -0.00488      0.01614   18831.00000
    -0.00488      0.04267   18932.00000
    -0.00488      0.05153   19031.00000
    -0.00488      0.05985   19131.00000
     2.49512     -2.45698   19665.00000
     2.49512     -2.91462   19765.00000
     2.49512     -2.96430   19866.00000
     2.49512     -2.87758   19965.00000
     2.49512     -2.81104   20065.00000
     2.49512     -2.72683   20166.00000
     2.49512     -2.69706   20265.00000
     2.49512     -2.67121   20365.00000
     2.49512     -2.64803   20466.00000
     2.49512     -2.62955   20565.00000
    -2.49512      3.34730   21773.00000
    -2.49512      3.79346   21874.00000
    -2.49512      3.83738   21974.00000
    -2.49512      3.75088   22074.00000
    -2.49512      3.68502   22175.00000
    -2.49512      3.60013   22274.00000
    -2.49512      3.57045   22374.00000
    -2.49512      3.54546   22474.00000
    -2.49512      3.52274   22574.00000
    -2.49512      3.50237   22675.00000
    -0.00488      0.49721   23470.00000
    -0.00488     -0.03383   23572.00000
    -0.00488     -0.16159   23671.00000
    -0.00488     -0.07357   23771.00000
    -0.00488     -0.04299   23871.00000
    -0.00488     -0.01995   23971.00000
    -0.00488     -0.00166   24071.00000
    -0.00488      0.01366   24172.00000
    -0.00488      0.02490   24271.00000
    -0.00488      0.03476   24371.00000
     2.99316     -3.02738   24947.00000
     2.99316     -3.45203   25048.00000
     2.99316     -3.47959   25149.00000
     2.99316     -3.38193   25248.00000
     2.99316     -3.25609   25348.00000
     2.99316     -3.21597   25449.00000
     2.99316     -3.18250   25548.00000
     2.99316     -3.15397   25648.00000
     2.99316     -3.12890   25749.00000
     2.99316     -3.10810   25848.00000
    -2.99316      4.01055   27141.00000
    -2.99316      4.41057   27243.00000
    -2.99316      4.42610   27342.00000
    -2.99316      4.32787   27442.00000
    -2.99316      4.25445   27543.00000
    -2.99316      4.16089   27642.00000
    -2.99316      4.12553   27742.00000
    -2.99316      4.09646   27843.00000
    -2.99316      4.07169   27942.00000
    -2.99316      4.04908   28042.00000
    -0.00488      0.05091   28882.00000
    -0.00488     -0.18701   28982.00000
    -0.00488     -0.18037   29083.00000
    -0.00488     -0.12404   29182.00000
    -0.00488     -0.08457   29282.00000
    -0.00488     -0.05688   29383.00000
    -0.00488     -0.01808   29482.00000
    -0.00488     -0.00298   29582.00000
    -0.00488      0.00904   29683.00000
    -0.00488      0.01882   29782.00000
     3.49121     -3.63698   30394.00000
     3.49121     -3.97521   30495.00000
     3.49121     -3.95857   30594.00000
     3.49121     -3.85243   30694.00000
     3.49121     -3.77695   30795.00000
     3.49121     -3.67818   30894.00000
     3.49121     -3.64138   30995.00000
     3.49121     -3.60994   31094.00000
     3.49121     -3.58208   31194.00000
     3.49121     -3.55820   31295.00000
    -3.49365      4.73694   32666.00000
    -3.49365      4.98586   32767.00000
    -3.49365      4.92559   32867.00000
    -3.49365      4.81653   32968.00000
    -3.49365      4.74108   33067.00000
    -3.49365      4.68361   33167.00000
    -3.49365      4.60235   33268.00000
    -3.49365      4.57042   33367.00000
    -3.49365      4.54240   33467.00000
    -3.49365      4.51725   33568.00000
    -0.00488      0.04435   34448.00000
    -0.00488     -0.21613   34549.00000
    -0.00488     -0.22740   34649.00000
    -0.00488     -0.16897   34750.00000
    -0.00488     -0.09300   34849.00000
    -0.00488     -0.06895   34949.00000
    -0.00488     -0.04940   35050.00000
    -0.00488     -0.03332   35149.00000
    -0.00488     -0.01957   35249.00000
    -0.00488     -0.00774   35350.00000
     3.99414     -3.70400   35984.00000
     3.99414     -4.46027   36085.00000
     3.99414     -4.36556   36185.00000
     3.99414     -4.26147   36286.00000
     3.99414     -4.19012   36385.00000
     3.99414     -4.13647   36485.00000
     3.99414     -4.09281   36586.00000
     3.99414     -4.05526   36685.00000
     3.99414     -3.99520   36785.00000
     3.99414     -3.97067   36886.00000
    -3.99414      5.16092   38307.00000
    -3.99414      5.45544   38407.00000
    -3.99414      5.40265   38508.00000
    -3.99414      5.27857   38607.00000
    -3.99414      5.19388   38707.00000
    -3.99414      5.08220   38808.00000
    -3.99414      5.04165   38907.00000
    -3.99414      5.00580   39007.00000
    -3.99414      4.97392   39108.00000
    -3.99414      4.94685   39207.00000
    -0.00488      0.19034   40108.00000
    -0.00488     -0.19641   40208.00000
    -0.00488     -0.22567   40309.00000
    -0.00488     -0.17118   40408.00000
    -0.00488     -0.13241   40509.00000
    -0.00488     -0.10486   40608.00000
    -0.00488     -0.08268   40708.00000
    -0.00488     -0.06509   40808.00000
    -0.00488     -0.04999   40908.00000
    -0.00488     -0.02659   41008.00000
     4.49463     -4.42305   41687.00000
     4.49463     -4.83762   41789.00000
     4.49463     -4.75074   41888.00000
     4.49463     -4.65235   41988.00000
     4.49463     -4.58354   42089.00000
     4.49463     -4.52841   42188.00000
     4.49463     -4.48423   42288.00000
     4.49463     -4.44712   42389.00000
     4.49463     -4.41335   42488.00000
     4.49463     -4.38363   42588.00000
    -4.49463      5.39125   44071.00000
    -4.49463      5.83774   44172.00000
    -4.49463      5.76136   44273.00000
    -4.49463      5.65468   44372.00000
    -4.49463      5.58050   44472.00000
    -4.49463      5.52298   44573.00000
    -4.49463      5.47530   44672.00000
    -4.49463      5.43540   44772.00000
    -4.49463      5.40114   44873.00000
    -4.49463      5.34360   44972.00000
    -0.00488      0.03389   45897.00000
    -0.00488     -0.26825   45997.00000
    -0.00488     -0.30769   46098.00000
    -0.00488     -0.19260   46197.00000
    -0.00488     -0.15546   46297.00000
    -0.00488     -0.12747   46398.00000
    -0.00488     -0.10480   46497.00000
    -0.00488     -0.08614   46597.00000
    -0.00488     -0.07182   46698.00000
    -0.00488     -0.05844   46797.00000
     4.99512     -4.78673   47500.00000
     4.99512     -5.23483   47602.00000
     4.99512     -5.15962   47701.00000
     4.99512     -5.05312   47801.00000
     4.99512     -4.97897   47902.00000
     4.99512     -4.91978   48001.00000
     4.99512     -4.87123   48101.00000
     4.99512     -4.83111   48202.00000
     4.99512     -4.79718   48301.00000
     4.99512     -4.73921   48402.00000
    -4.99512      6.04543   49932.00000
    -4.99512      6.32155   50033.00000
    -4.99512      6.26785   50132.00000
    -4.99512      6.13677   50232.00000
    -4.99512      5.97297   50333.00000
    -4.99512      5.91746   50432.00000
    -4.99512      5.87137   50532.00000
    -4.99512      5.83252   50633.00000
    -4.99512      5.79821   50732.00000
    -4.99512      5.76687   50832.00000
    -0.00488     -0.05988   51776.00000
    -0.00488     -0.31774   51877.00000
    -0.00488     -0.33330   51977.00000
    -0.00488     -0.26576   52077.00000
    -0.00488     -0.21303   52177.00000
    -0.00488     -0.14803   52277.00000
    -0.00488     -0.12596   52378.00000
    -0.00488     -0.10794   52477.00000
    -0.00488     -0.09200   52577.00000
    -0.00488     -0.07760   52678.00000
     5.49316     -5.13249   53391.00000
     5.49316     -5.61915   53493.00000
     5.49316     -5.55980   53592.00000
     5.49316     -5.44398   53693.00000
     5.49316     -5.36418   53792.00000
     5.49316     -5.30204   53892.00000
     5.49316     -5.25279   53993.00000
     5.49316     -5.21049   54092.00000
     5.49316     -5.17305   54192.00000
     5.49316     -5.10991   54293.00000
    -5.49316      6.20039   55854.00000
    -5.49316      6.68153   55955.00000
    -5.49316      6.60700   56054.00000
    -5.49316      6.48805   56154.00000
    -5.49316      6.40849   56255.00000
    -5.49316      6.35213   56354.00000
    -5.49316      6.30597   56454.00000
    -5.49316      6.26263   56555.00000
    -5.49316      6.22449   56654.00000
    -5.49316      6.16476   56754.00000
    -0.00488     -0.23450   57747.00000
    -0.00488     -0.36450   57847.00000
    -0.00488     -0.33306   57947.00000
    -0.00488     -0.26970   58048.00000
    -0.00488     -0.22321   58147.00000
    -0.00488     -0.18844   58247.00000
    -0.00488     -0.14117   58348.00000
    -0.00488     -0.12344   58447.00000
    -0.00488     -0.10740   58547.00000
    -0.00488     -0.09397   58648.00000
     5.99121     -5.97805   59399.00000
     5.99121     -6.09411   59500.00000
     5.99121     -5.97999   59599.00000
     5.99121     -5.85270   59699.00000
     5.99121     -5.76460   59800.00000
     5.99121     -5.69822   59899.00000
     5.99121     -5.64384   59999.00000
     5.99121     -5.56001   60100.00000
     5.99121     -5.52468   60199.00000
     5.99121     -5.49264   60299.00000
    -5.99365      6.69469   61929.00000
    -5.99365      7.15733   62029.00000
    -5.99365      7.06058   62129.00000
    -5.99365      6.93661   62230.00000
    -5.99365      6.85195   62329.00000
    -5.99365      6.78579   62429.00000
    -5.99365      6.73235   62530.00000
    -5.99365      6.68659   62629.00000
    -5.99365      6.64568   62729.00000
    -5.99365      6.57850   62830.00000
    -0.00488     -0.18072   63821.00000
    -0.00488     -0.37906   63921.00000
    -0.00488     -0.37045   64022.00000
    -0.00488     -0.30172   64121.00000
    -0.00488     -0.24863   64221.00000
    -0.00488     -0.18096   64322.00000
    -0.00488     -0.15827   64421.00000
    -0.00488     -0.13979   64521.00000
    -0.00488     -0.12290   64622.00000
    -0.00488     -0.10913   64721.00000
     6.49414     -6.27184   65510.00000
     6.49414     -6.50485   65611.00000
     6.49414     -6.43415   65710.00000
     6.49414     -6.29326   65811.00000
     6.49414     -6.11596   65910.00000
     6.49414     -6.05674   66010.00000
     6.49414     -6.00712   66111.00000
     6.49414     -5.96408   66210.00000
     6.49414     -5.92621   66310.00000
     6.49414     -5.89279   66411.00000
    -6.49414      7.11445   68100.00000
    -6.49414      7.71717   68201.00000
    -6.49414      7.57809   68300.00000
    -6.49414      7.44080   68400.00000
    -6.49414      7.34897   68501.00000
    -6.49414      7.27830   68600.00000
    -6.49414      7.22162   68700.00000
    -6.49414      7.17286   68801.00000
    -6.49414      7.09252   68900.00000
    -6.49414      7.05759   69000.00000
    -0.00488     -0.06074   70028.00000
    -0.00488     -0.41137   70129.00000
    -0.00488     -0.35208   70228.00000
    -0.00488     -0.28853   70328.00000
    -0.00488     -0.24493   70429.00000
    -0.00488     -0.21370   70527.00000
    -0.00488     -0.18782   70628.00000
    -0.00488     -0.16651   70729.00000
    -0.00488     -0.13209   70828.00000
    -0.00488     -0.11942   70928.00000
     6.99463     -6.78329   71718.00000
     6.99463     -6.93780   71818.00000
     6.99463     -6.82101   71919.00000
     6.99463     -6.67904   72018.00000
     6.99463     -6.58092   72118.00000
     6.99463     -6.50785   72219.00000
     6.99463     -6.44860   72318.00000
     6.99463     -6.35529   72418.00000
     6.99463     -6.31822   72519.00000
     6.99463     -6.28424   72618.00000
    -6.99463      8.11986   74352.00000
    -6.99463      8.30875   74452.00000
    -6.99463      8.18029   74552.00000
    -6.99463      8.02541   74653.00000
    -6.99463      7.92308   74752.00000
    -6.99463      7.84400   74852.00000
    -6.99463      7.78095   74953.00000
    -6.99463      7.68124   75052.00000
    -6.99463      7.64079   75152.00000
    -6.99463      7.60459   75253.00000
    -0.00488     -0.30647   76317.00000
    -0.00488     -0.42777   76418.00000
    -0.00488     -0.39581   76518.00000
    -0.00488     -0.32795   76619.00000
    -0.00488     -0.27724   76718.00000
    -0.00488     -0.21178   76819.00000
    -0.00488     -0.18760   76918.00000
    -0.00488     -0.16861   77018.00000
    -0.00488     -0.15262   77119.00000
    -0.00488     -0.13803   77218.00000
     7.49512     -6.80510   78031.00000
     7.49512     -7.36877   78131.00000
     7.49512     -7.22224   78232.00000
     7.49512     -7.08795   78331.00000
     7.49512     -6.99561   78431.00000
     7.49512     -6.92318   78532.00000
     7.49512     -6.86399   78631.00000
     7.49512     -6.81401   78731.00000
     7.49512     -6.73380   78832.00000
     7.49512     -6.69955   78931.00000
    -7.49512      8.57147   80713.00000
    -7.49512      8.94026   80813.00000
    -7.49512      8.87753   80914.00000
    -7.49512      8.70163   81013.00000
    -7.49512      8.57928   81113.00000
    -7.49512      8.42197   81214.00000
    -7.49512      8.36162   81313.00000
    -7.49512      8.30942   81413.00000
    -7.49512      8.26482   81514.00000
    -7.49512      8.22424   81613.00000
    -0.00488     -0.40716   82702.00000
    -0.00488     -0.44244   82804.00000
    -0.00488     -0.38217   82903.00000
    -0.00488     -0.31877   83002.00000
    -0.00488     -0.27459   83104.00000
    -0.00488     -0.24164   83203.00000
    -0.00488     -0.21524   83304.00000
    -0.00488     -0.19339   83403.00000
    -0.00488     -0.15910   83503.00000
    -0.00488     -0.14476   83604.00000
     7.99316     -7.38706   84429.00000
     7.99316     -7.81787   84529.00000
     7.99316     -7.82268   84630.00000
     7.99316     -7.52913   84729.00000
     7.99316     -7.43834   84829.00000
     7.99316     -7.36707   84930.00000
     7.99316     -7.30685   85029.00000
     7.99316     -7.25614   85129.00000
     7.99316     -7.21305   85230.00000
     7.99316     -7.17502   85329.00000
    -7.99316      9.16543   87135.00000
    -7.99316      9.64433   87237.00000
    -7.99316      9.61348   87336.00000
    -7.99316      9.42373   87436.00000
    -7.99316      9.28822   87537.00000
    -7.99316      9.11575   87636.00000
    -7.99316      9.05027   87736.00000
    -7.99316      8.99607   87837.00000
    -7.99316      8.94939   87936.00000
    -7.99316      8.90703   88036.00000
    -0.00488     -0.39341   89137.00000
    -0.00488     -0.46494   89239.00000
    -0.00488     -0.41353   89338.00000
    -0.00488     -0.34467   89438.00000
    -0.00488     -0.29561   89539.00000
    -0.00488     -0.25987   89638.00000
    -0.00488     -0.21003   89738.00000
    -0.00488     -0.18993   89838.00000
    -0.00488     -0.17299   89938.00000
    -0.00488     -0.15816   90038.00000
     8.49365     -8.21959   90888.00000
     8.49365     -8.36945   90989.00000
     8.49365     -8.23124   91088.00000
     8.49365     -8.07474   91188.00000
     8.49365     -7.96732   91289.00000
     8.49365     -7.88676   91388.00000
     8.49365     -7.82152   91488.00000
     8.49365     -7.71765   91589.00000
     8.49365     -7.67534   91688.00000
     8.49365     -7.63668   91788.00000
    -8.49365     10.00275   93643.00000
    -8.49365     10.47832   93744.00000
    -8.49365     10.42551   93845.00000
    -8.49365     10.22516   93944.00000
    -8.49365     10.08666   94044.00000
    -8.49365      9.90552   94145.00000
    -8.49365      9.83828   94244.00000
    -8.49365      9.78041   94344.00000
    -8.49365      9.73008   94445.00000
    -8.49365      9.68550   94544.00000
    -0.00488     -0.37763   95669.00000
    -0.00488     -0.47691   95771.00000
    -0.00488     -0.44068   95870.00000
    -0.00488     -0.37004   95970.00000
    -0.00488     -0.31658   96071.00000
    -0.00488     -0.24885   96170.00000
    -0.00488     -0.22502   96270.00000
    -0.00488     -0.20584   96371.00000
    -0.00488     -0.18712   96470.00000
    -0.00488     -0.17164   96570.00000
     8.99170     -8.49372   97456.00000
     8.99170     -8.88244   97558.00000
     8.99170     -8.69422   97657.00000
     8.99170     -8.55669   97757.00000
     8.99170     -8.45968   97858.00000
     8.99170     -8.38401   97957.00000
     8.99170     -8.32052   98057.00000
     8.99170     -8.26606   98158.00000
     8.99170     -8.21892   98257.00000
     8.99170     -8.17756   98357.00000
    -8.99414     10.87034  100255.00000
    -8.99414     11.39506  100355.00000
    -8.99414     11.37018  100457.00000
    -8.99414     11.16092  100556.00000
    -8.99414     10.89833  100656.00000
    -8.99414     10.81164  100757.00000
    -8.99414     10.73900  100856.00000
    -8.99414     10.67670  100956.00000
    -8.99414     10.62253  101057.00000
    -8.99414     10.57453  101156.00000
    -0.00488     -0.32090  102282.00000
    -0.00488     -0.48829  102383.00000
    -0.00488     -0.48205  102482.00000
    -0.00488     -0.34756  102582.00000
    -0.00488     -0.30423  102683.00000
    -0.00488     -0.27116  102782.00000
    -0.00488     -0.24534  102882.00000
    -0.00488     -0.22397  102983.00000
    -0.00488     -0.20549  103082.00000
    -0.00488     -0.18907  103182.00000
     9.49463     -8.80593  104063.00000
     9.49463     -9.41383  104163.00000
     9.49463     -9.31915  104264.00000
     9.49463     -9.15881  104363.00000
     9.49463     -9.04945  104463.00000
     9.49463     -8.96524  104564.00000
     9.49463     -8.89565  104663.00000
     9.49463     -8.83816  104763.00000
     9.49463     -8.78762  104864.00000
     9.49463     -8.70279  104963.00000
    -9.49463     11.10505  106884.00000
    -9.49463     12.52112  106986.00000
    -9.49463     12.33644  107085.00000
    -9.49463     12.12974  107185.00000
    -9.49463     11.99310  107286.00000
    -9.49463     11.88793  107385.00000
    -9.49463     11.80181  107485.00000
    -9.49463     11.72830  107586.00000
    -9.49463     11.61002  107685.00000
    -9.49463     11.56056  107785.00000
    -0.00488     -0.43196  108942.00000
    -0.00488     -0.51198  109043.00000
    -0.00488     -0.46684  109142.00000
    -0.00488     -0.39460  109242.00000
    -0.00488     -0.34027  109343.00000
    -0.00488     -0.30142  109442.00000
    -0.00488     -0.24707  109542.00000
    -0.00488     -0.22616  109642.00000
    -0.00488     -0.20806  109742.00000
    -0.00488     -0.19271  109843.00000
     9.99512     -9.46762  110752.00000
     9.99512    -10.13401  110853.00000
     9.99512     -9.95890  110954.00000
     9.99512     -9.79270  111053.00000
     9.99512     -9.67818  111153.00000
     9.99512     -9.58970  111254.00000
     9.99512     -9.51706  111353.00000
     9.99512     -9.45576  111453.00000
     9.99512     -9.40319  111554.00000
     9.99512     -9.31463  111653.00000
    -9.99268     13.12161  113606.00000
    -9.99268     13.69739  113707.00000
    -9.99268     13.62545  113807.00000
    -9.99268     13.38215  113908.00000
    -9.99268     13.21374  114007.00000
    -9.99268     12.99045  114107.00000
    -9.99268     12.90879  114208.00000
    -9.99268     12.83695  114307.00000
    -9.99268     12.77490  114408.00000
    -9.99268     12.72014  114507.00000
    -0.00488     -0.49742  115700.00000
    -0.00488     -0.51725  115800.00000
    -0.00488     -0.45449  115901.00000
    -0.00488     -0.38876  116000.00000
    -0.00488     -0.34167  116100.00000
    -0.00488     -0.30645  116200.00000
    -0.00488     -0.27821  116300.00000
    -0.00488     -0.23356  116400.00000
    -0.00488     -0.21592  116501.00000
    -0.00488     -0.20030  116600.00000
    10.49316    -10.73267  117541.00000
    10.49316    -10.83851  117642.00000
    10.49316    -10.66872  117743.00000
    10.49316    -10.49010  117842.00000
    10.49316    -10.36715  117942.00000
    10.49316    -10.27387  118043.00000
    10.49316    -10.19768  118142.00000
    10.49316    -10.07660  118242.00000
    10.49316    -10.02751  118343.00000
    10.49316     -9.98391  118442.00000
   -10.49316     14.77325  120443.00000
   -10.49316     15.05729  120544.00000
   -10.49316     14.85408  120645.00000
   -10.49316     14.61472  120744.00000
   -10.49316     14.45758  120844.00000
   -10.49316     14.33768  120945.00000
   -10.49316     14.23794  121044.00000
   -10.49316     14.08358  121144.00000
   -10.49316     14.01955  121245.00000
   -10.49316     13.96125  121344.00000
    -0.00488     -0.36990  122519.00000
    -0.00488     -0.53294  122620.00000
    -0.00488     -0.53013  122720.00000
    -0.00488     -0.38963  122821.00000
    -0.00488     -0.34373  122920.00000
    -0.00488     -0.30980  123020.00000
    -0.00488     -0.28170  123121.00000
    -0.00488     -0.25787  123220.00000
    -0.00488     -0.23853  123319.00000
    -0.00488     -0.22162  123421.00000
    10.99365    -11.10489  124367.00000
    10.99365    -11.61491  124468.00000
    10.99365    -11.59503  124569.00000
    10.99365    -11.21446  124668.00000
    10.99365    -11.09635  124768.00000
    10.99365    -11.00515  124869.00000
    10.99365    -10.92948  124968.00000
    10.99365    -10.86566  125068.00000
    10.99365    -10.80953  125169.00000
    10.99365    -10.75896  125268.00000
   -10.99121     15.96903  127324.00000
   -10.99121     16.56388  127425.00000
   -10.99121     16.42621  127524.00000
   -10.99121     16.13572  127624.00000
   -10.99121     15.94810  127725.00000
   -10.99121     15.80934  127824.00000
   -10.99121     15.59973  127924.00000
   -10.99121     15.51736  128025.00000
   -10.99121     15.44548  128124.00000
   -10.99121     15.38223  128224.00000
    -0.00488     -0.49807  129442.00000
    -0.00488     -0.55577  129543.00000
    -0.00488     -0.50374  129644.00000
    -0.00488     -0.43093  129743.00000
    -0.00488     -0.37620  129843.00000
    -0.00488     -0.30563  129944.00000
    -0.00488     -0.28057  130043.00000
    -0.00488     -0.25930  130143.00000
    -0.00488     -0.23961  130244.00000
    -0.00488     -0.22394  130343.00000
    10.99365    -11.09435  131284.00000
    10.99365    -11.44007  131385.00000
    10.99365    -11.34168  131486.00000
    10.99365    -11.14041  131585.00000
    10.99365    -11.00012  131685.00000
    10.99365    -10.89771  131786.00000
    10.99365    -10.74966  131885.00000
    10.99365    -10.69031  131986.00000
    10.99365    -10.64028  132085.00000
    10.99365    -10.59473  132185.00000
   -10.99365     14.72784  134241.00000
   -10.99365     16.32256  134342.00000
   -10.99365     16.08871  134441.00000
   -10.99365     15.84646  134541.00000
   -10.99365     15.68975  134642.00000
   -10.99365     15.56850  134741.00000
   -10.99365     15.46792  134841.00000
   -10.99365     15.38401  134942.00000
   -10.99365     15.24637  135041.00000
   -10.99365     15.18786  135141.00000
    -0.00488     -0.37806  136359.00000
    -0.00488     -0.55093  136459.00000
    -0.00488     -0.48194  136560.00000
    -0.00488     -0.41299  136659.00000
    -0.00488     -0.36539  136759.00000
    -0.00488     -0.32946  136860.00000
    -0.00488     -0.30002  136959.00000
    -0.00488     -0.27554  137059.00000
    -0.00488     -0.23858  137160.00000
    -0.00488     -0.22289  137259.00000
    10.49316     -9.69123  138200.00000
    10.49316    -10.29362  138302.00000
    10.49316    -10.12588  138401.00000
    10.49316     -9.96913  138501.00000
    10.49316     -9.86304  138602.00000
    10.49316     -9.78240  138701.00000
    10.49316     -9.71500  138801.00000
    10.49316     -9.65913  138902.00000
    10.49316     -9.56804  139001.00000
    10.49316     -9.53219  139101.00000
   -10.49072     13.04881  141108.00000
   -10.49072     14.39984  141210.00000
   -10.49072     14.20812  141309.00000
   -10.49072     13.99229  141409.00000
   -10.49072     13.85197  141510.00000
   -10.49072     13.74653  141609.00000
   -10.49072     13.65990  141709.00000
   -10.49072     13.58768  141810.00000
   -10.49072     13.46828  141909.00000
   -10.49072     13.41959  142009.00000
    -0.00488     -0.39622  143190.00000
    -0.00488     -0.54680  143291.00000
    -0.00488     -0.54026  143392.00000
    -0.00488     -0.39832  143491.00000
    -0.00488     -0.35326  143592.00000
    -0.00488     -0.31901  143691.00000
    -0.00488     -0.29016  143791.00000
    -0.00488     -0.26784  143892.00000
    -0.00488     -0.24861  143991.00000
    -0.00488     -0.23164  144091.00000
     9.99512     -9.17067  145002.00000
     9.99512     -9.39465  145103.00000
     9.99512     -9.28810  145203.00000
     9.99512     -9.11820  145304.00000
     9.99512     -9.00352  145403.00000
     9.99512     -8.92059  145503.00000
     9.99512     -8.79910  145604.00000
     9.99512     -8.75185  145703.00000
     9.99512     -8.71049  145803.00000
     9.99512     -8.67496  145904.00000
    -9.99512     11.83841  147855.00000
    -9.99512     12.67516  147957.00000
    -9.99512     12.79522  148056.00000
    -9.99512     12.40652  148157.00000
    -9.99512     12.28746  148256.00000
    -9.99512     12.19547  148356.00000
    -9.99512     12.11988  148457.00000
    -9.99512     12.05502  148556.00000
    -9.99512     11.99977  148656.00000
    -9.99512     11.95063  148757.00000
    -0.00488     -0.47194  149949.00000
    -0.00488     -0.53702  150050.00000
    -0.00488     -0.49323  150150.00000
    -0.00488     -0.42421  150251.00000
    -0.00488     -0.33087  150350.00000
    -0.00488     -0.30018  150450.00000
    -0.00488     -0.27527  150551.00000
    -0.00488     -0.25387  150650.00000
    -0.00488     -0.23518  150750.00000
    -0.00488     -0.22000  150851.00000
     9.49463     -8.05412  151724.00000
     9.49463     -8.53800  151826.00000
     9.49463     -8.58198  151925.00000
     9.49463     -8.27570  152025.00000
     9.49463     -8.18258  152126.00000
     9.49463     -8.11067  152225.00000
     9.49463     -8.05334  152325.00000
     9.49463     -8.00539  152426.00000
     9.49463     -7.96343  152525.00000
     9.49463     -7.92710  152625.00000
    -9.49463     10.36256  154547.00000
    -9.49463     11.24837  154649.00000
    -9.49463     11.24605  154748.00000
    -9.49463     11.07255  154848.00000
    -9.49463     10.95849  154949.00000
    -9.49463     10.87097  155048.00000
    -9.49463     10.79878  155148.00000
    -9.49463     10.73867  155249.00000
    -9.49463     10.68729  155348.00000
    -9.49463     10.60227  155448.00000
    -0.00488     -0.48399  156605.00000
    -0.00488     -0.52824  156706.00000
    -0.00488     -0.47091  156806.00000
    -0.00488     -0.40162  156907.00000
    -0.00488     -0.35194  157006.00000
    -0.00488     -0.31512  157106.00000
    -0.00488     -0.26271  157207.00000
    -0.00488     -0.24188  157306.00000
    -0.00488     -0.22505  157406.00000
    -0.00488     -0.21068  157507.00000
     8.99170     -7.66302  158391.00000
     8.99170     -7.87839  158493.00000
     8.99170     -7.79937  158592.00000
     8.99170     -7.64460  158692.00000
     8.99170     -7.45849  158793.00000
     8.99170     -7.39757  158892.00000
     8.99170     -7.34781  158992.00000
     8.99170     -7.30623  159093.00000
     8.99170     -7.26949  159192.00000
     8.99170     -7.23785  159293.00000
    -8.99414      9.93748  161190.00000
    -8.99414     10.23657  161290.00000
    -8.99414     10.13261  161391.00000
    -8.99414      9.94734  161490.00000
    -8.99414      9.82801  161590.00000
    -8.99414      9.74207  161691.00000
    -8.99414      9.61570  161790.00000
    -8.99414      9.56564  161890.00000
    -8.99414      9.52252  161991.00000
    -8.99414      9.48511  162090.00000
    -0.00488     -0.42496  163216.00000
    -0.00488     -0.52360  163318.00000
    -0.00488     -0.48288  163417.00000
    -0.00488     -0.40765  163518.00000
    -0.00488     -0.35402  163617.00000
    -0.00488     -0.28437  163717.00000
    -0.00488     -0.26068  163818.00000
    -0.00488     -0.23926  163917.00000
    -0.00488     -0.22205  164017.00000
    -0.00488     -0.20616  164118.00000
     8.49365     -7.08911  164966.00000
     8.49365     -7.24193  165067.00000
     8.49365     -7.12966  165166.00000
     8.49365     -6.98494  165267.00000
     8.49365     -6.88879  165366.00000
     8.49365     -6.81785  165466.00000
     8.49365     -6.71735  165567.00000
     8.49365     -6.67837  165666.00000
     8.49365     -6.64460  165766.00000
     8.49365     -6.61523  165867.00000
    -8.49365      8.73516  167720.00000
    -8.49365      9.18969  167820.00000
    -8.49365      9.17475  167921.00000
    -8.49365      8.99332  168021.00000
    -8.49365      8.77771  168120.00000
    -8.49365      8.70936  168221.00000
    -8.49365      8.65295  168320.00000
    -8.49365      8.60538  168420.00000
    -8.49365      8.56337  168521.00000
    -8.49365      8.52638  168620.00000
    -0.00488     -0.40189  169746.00000
    -0.00488     -0.50082  169847.00000
    -0.00488     -0.46894  169947.00000
    -0.00488     -0.40022  170048.00000
    -0.00488     -0.30728  170147.00000
    -0.00488     -0.27659  170247.00000
    -0.00488     -0.25125  170348.00000
    -0.00488     -0.23199  170447.00000
    -0.00488     -0.21605  170547.00000
    -0.00488     -0.19971  170648.00000
     7.99316     -6.52214  171472.00000
     7.99316     -6.65865  171573.00000
     7.99316     -6.54959  171674.00000
     7.99316     -6.41067  171773.00000
     7.99316     -6.31847  171873.00000
     7.99316     -6.25185  171974.00000
     7.99316     -6.19925  172073.00000
     7.99316     -6.11856  172173.00000
     7.99316     -6.08587  172274.00000
     7.99316     -6.05745  172373.00000
    -7.99316      8.16206  174192.00000
    -7.99316      8.34706  174292.00000
    -7.99316      8.21473  174392.00000
    -7.99316      8.05891  174493.00000
    -7.99316      7.96136  174592.00000
    -7.99316      7.88847  174692.00000
    -7.99316      7.82952  174793.00000
    -7.99316      7.74064  174892.00000
    -7.99316      7.70471  174992.00000
    -7.99316      7.67321  175093.00000
    -0.00488     -0.30337  176193.00000
    -0.00488     -0.47483  176294.00000
    -0.00488     -0.41213  176394.00000
    -0.00488     -0.35259  176495.00000
    -0.00488     -0.31017  176594.00000
    -0.00488     -0.27840  176694.00000
    -0.00488     -0.25271  176795.00000
    -0.00488     -0.23159  176894.00000
    -0.00488     -0.21276  176994.00000
    -0.00488     -0.18423  177095.00000
     7.49512     -5.98337  177907.00000
     7.49512     -6.12788  178008.00000
     7.49512     -6.03216  178109.00000
     7.49512     -5.89725  178208.00000
     7.49512     -5.80707  178308.00000
     7.49512     -5.68909  178409.00000
     7.49512     -5.64676  178508.00000
     7.49512     -5.61115  178608.00000
     7.49512     -5.57963  178709.00000
     7.49512     -5.55242  178808.00000
    -7.49512      7.06937  180590.00000
    -7.49512      7.52109  180691.00000
    -7.49512      7.41886  180791.00000
    -7.49512      7.29205  180892.00000
    -7.49512      7.20822  180991.00000
    -7.49512      7.14458  181091.00000
    -7.49512      7.09281  181192.00000
    -7.49512      7.04948  181291.00000
    -7.49512      7.01344  181391.00000
    -7.49512      6.95071  181492.00000
    -0.00488     -0.39141  182574.00000
    -0.00488     -0.47864  182675.00000
    -0.00488     -0.43879  182774.00000
    -0.00488     -0.37015  182874.00000
    -0.00488     -0.31955  182975.00000
    -0.00488     -0.25533  183074.00000
    -0.00488     -0.23331  183174.00000
    -0.00488     -0.21476  183275.00000
    -0.00488     -0.19922  183374.00000
    -0.00488     -0.18523  183474.00000
     6.99463     -5.40367  184264.00000
     6.99463     -5.63209  184364.00000
     6.99463     -5.58578  184464.00000
     6.99463     -5.35148  184565.00000
     6.99463     -5.28302  184664.00000
     6.99463     -5.23105  184765.00000
     6.99463     -5.18780  184864.00000
     6.99463     -5.15214  184964.00000
     6.99463     -5.12072  185065.00000
     6.99463     -5.09367  185164.00000
    -6.99463      6.59449  186903.00000
    -6.99463      6.90538  187003.00000
    -6.99463      6.87931  187103.00000
    -6.99463      6.62134  187204.00000
    -6.99463      6.54783  187303.00000
    -6.99463      6.49153  187403.00000
    -6.99463      6.44534  187504.00000
    -6.99463      6.40644  187603.00000
    -6.99463      6.37337  187703.00000
    -6.99463      6.34506  187804.00000
    -0.00488     -0.24161  188868.00000
    -0.00488     -0.45465  188968.00000
    -0.00488     -0.39152  189068.00000
    -0.00488     -0.33163  189169.00000
    -0.00488     -0.28999  189268.00000
    -0.00488     -0.25860  189368.00000
    -0.00488     -0.23331  189469.00000
    -0.00488     -0.21297  189568.00000
    -0.00488     -0.18185  189668.00000
    -0.00488     -0.16918  189769.00000
     6.49414     -5.13601  190551.00000
     6.49414     -5.16364  190651.00000
     6.49414     -5.04891  190752.00000
     6.49414     -4.93998  190851.00000
     6.49414     -4.86618  190952.00000
     6.49414     -4.81112  191051.00000
     6.49414     -4.76533  191151.00000
     6.49414     -4.69852  191252.00000
     6.49414     -4.67132  191351.00000
     6.49414     -4.64606  191451.00000
    -6.49414      6.16481  193141.00000
    -6.49414      6.35116  193242.00000
    -6.49414      6.28470  193343.00000
    -6.49414      6.14922  193442.00000
    -6.49414      5.99221  193542.00000
    -6.49414      5.94253  193643.00000
    -6.49414      5.90184  193742.00000
    -6.49414      5.86656  193842.00000
    -6.49414      5.83720  193943.00000
    -6.49414      5.81032  194042.00000
    -0.00488     -0.30988  195070.00000
    -0.00488     -0.44795  195171.00000
    -0.00488     -0.42364  195272.00000
    -0.00488     -0.35337  195371.00000
    -0.00488     -0.26544  195471.00000
    -0.00488     -0.23796  195572.00000
    -0.00488     -0.21513  195671.00000
    -0.00488     -0.19612  195771.00000
    -0.00488     -0.17893  195871.00000
    -0.00488     -0.16591  195971.00000
     5.99365     -4.66845  196724.00000
     5.99365     -4.75514  196824.00000
     5.99365     -4.65846  196925.00000
     5.99365     -4.54235  197024.00000
     5.99365     -4.46392  197124.00000
     5.99365     -4.40759  197225.00000
     5.99365     -4.32714  197324.00000
     5.99365     -4.29607  197424.00000
     5.99365     -4.26852  197525.00000
     5.99365     -4.24485  197624.00000
    -5.99365      5.79740  199253.00000
    -5.99365      5.84479  199353.00000
    -5.99365      5.72662  199454.00000
    -5.99365      5.61227  199553.00000
    -5.99365      5.53668  199653.00000
    -5.99365      5.48097  199754.00000
    -5.99365      5.43648  199853.00000
    -5.99365      5.39914  199954.00000
    -5.99365      5.33984  200053.00000
    -5.99365      5.31523  200153.00000
    -0.00488     -0.22354  201144.00000
    -0.00488     -0.41497  201246.00000
    -0.00488     -0.41707  201345.00000
    -0.00488     -0.34816  201444.00000
    -0.00488     -0.25682  201546.00000
    -0.00488     -0.22789  201645.00000
    -0.00488     -0.20414  201746.00000
    -0.00488     -0.18536  201845.00000
    -0.00488     -0.17005  201945.00000
    -0.00488     -0.15627  202046.00000
     5.49316     -4.00971  202765.00000
     5.49316     -4.34081  202867.00000
     5.49316     -4.22610  202966.00000
     5.49316     -4.12501  203066.00000
     5.49316     -4.05666  203167.00000
     5.49316     -4.00674  203266.00000
     5.49316     -3.96805  203366.00000
     5.49316     -3.93391  203467.00000
     5.49316     -3.88039  203566.00000
     5.49316     -3.85950  203667.00000
    -5.49316      5.28427  205253.00000
    -5.49316      5.41497  205353.00000
    -5.49316      5.32366  205453.00000
    -5.49316      5.20136  205554.00000
    -5.49316      5.12150  205653.00000
    -5.49316      5.06377  205753.00000
    -5.49316      4.98067  205854.00000
    -5.49316      4.94769  205953.00000
    -5.49316      4.91948  206053.00000
    -5.49316      4.89555  206154.00000
    -0.00488     -0.20730  207144.00000
    -0.00488     -0.39419  207245.00000
    -0.00488     -0.33562  207346.00000
    -0.00488     -0.28178  207445.00000
    -0.00488     -0.24436  207545.00000
    -0.00488     -0.21640  207646.00000
    -0.00488     -0.19374  207745.00000
    -0.00488     -0.17588  207845.00000
    -0.00488     -0.16116  207946.00000
    -0.00488     -0.14754  208045.00000
     4.99512     -3.65786  208749.00000
     4.99512     -3.96397  208849.00000
     4.99512     -3.85588  208949.00000
     4.99512     -3.75849  209050.00000
     4.99512     -3.69406  209149.00000
     4.99512     -3.64533  209249.00000
     4.99512     -3.60653  209350.00000
     4.99512     -3.57625  209449.00000
     4.99512     -3.52622  209549.00000
     4.99512     -3.50404  209650.00000
    -4.99512      4.79122  211180.00000
    -4.99512      4.99472  211281.00000
    -4.99512      4.94971  211381.00000
    -4.99512      4.74302  211482.00000
    -4.99512      4.68213  211581.00000
    -4.99512      4.63504  211681.00000
    -4.99512      4.59784  211782.00000
    -4.99512      4.56529  211881.00000
    -4.99512      4.53781  211981.00000
    -4.99512      4.51428  212082.00000
    -0.00488     -0.13371  213024.00000
    -0.00488     -0.36669  213125.00000
    -0.00488     -0.38733  213226.00000
    -0.00488     -0.26849  213325.00000
    -0.00488     -0.23029  213425.00000
    -0.00488     -0.20255  213526.00000
    -0.00488     -0.18058  213625.00000
    -0.00488     -0.16226  213725.00000
    -0.00488     -0.14724  213826.00000
    -0.00488     -0.13420  213925.00000
     4.49463     -3.45692  214604.00000
     4.49463     -3.60875  214704.00000
     4.49463     -3.55474  214805.00000
     4.49463     -3.44812  214904.00000
     4.49463     -3.31825  215004.00000
     4.49463     -3.27738  215105.00000
     4.49463     -3.24407  215204.00000
     4.49463     -3.21613  215304.00000
     4.49463     -3.19325  215405.00000
     4.49463     -3.17372  215504.00000
    -4.49463      4.39401  216987.00000
    -4.49463      4.59611  217087.00000
    -4.49463      4.55802  217187.00000
    -4.49463      4.35870  217288.00000
    -4.49463      4.30086  217388.00000
    -4.49463      4.25631  217487.00000
    -4.49463      4.22057  217588.00000
    -4.49463      4.19088  217687.00000
    -4.49463      4.16435  217787.00000
    -4.49463      4.14077  217888.00000
    -0.00488     -0.18982  218805.00000
    -0.00488     -0.36294  218906.00000
    -0.00488     -0.34875  219005.00000
    -0.00488     -0.28446  219105.00000
    -0.00488     -0.23639  219206.00000
    -0.00488     -0.17650  219305.00000
    -0.00488     -0.15802  219405.00000
    -0.00488     -0.14152  219506.00000
    -0.00488     -0.12747  219605.00000
    -0.00488     -0.11558  219705.00000
     3.99170     -2.93750  220342.00000
     3.99170     -3.22640  220443.00000
     3.99170     -3.13344  220542.00000
     3.99170     -3.04726  220642.00000
     3.99170     -2.99118  220743.00000
     3.99170     -2.94803  220842.00000
     3.99170     -2.91437  220942.00000
     3.99170     -2.88693  221043.00000
     3.99170     -2.86350  221142.00000
     3.99170     -2.82266  221242.00000
    -3.99414      4.12040  222658.00000
    -3.99414      4.22408  222759.00000
    -3.99414      4.13312  222859.00000
    -3.99414      4.02925  222960.00000
    -3.99414      3.96279  223059.00000
    -3.99414      3.91386  223159.00000
    -3.99414      3.87475  223260.00000
    -3.99414      3.81693  223359.00000
    -3.99414      3.79411  223459.00000
    -3.99414      3.77152  223560.00000
    -0.00488     -0.07819  224459.00000
    -0.00488     -0.31352  224560.00000
    -0.00488     -0.33265  224661.00000
    -0.00488     -0.22213  224760.00000
    -0.00488     -0.18771  224860.00000
    -0.00488     -0.16197  224961.00000
    -0.00488     -0.14173  225060.00000
    -0.00488     -0.12552  225160.00000
    -0.00488     -0.11121  225261.00000
    -0.00488     -0.09948  225360.00000
     3.49365     -2.58044  225972.00000
     3.49365     -2.86718  226073.00000
     3.49365     -2.78421  226172.00000
     3.49365     -2.70382  226272.00000
     3.49365     -2.65035  226373.00000
     3.49365     -2.61042  226472.00000
     3.49365     -2.57860  226572.00000
     3.49365     -2.55234  226673.00000
     3.49365     -2.53019  226772.00000
     3.49365     -2.49545  226872.00000
    -3.49121      3.56218  228246.00000
    -3.49121      3.82585  228347.00000
    -3.49121      3.81480  228447.00000
    -3.49121      3.62999  228548.00000
    -3.49121      3.57596  228647.00000
    -3.49121      3.53538  228747.00000
    -3.49121      3.50315  228848.00000
    -3.49121      3.47678  228947.00000
    -3.49121      3.45414  229047.00000
    -3.49121      3.43296  229148.00000
    -0.00488      0.06688  230023.00000
    -0.00488     -0.30766  230124.00000
    -0.00488     -0.25663  230223.00000
    -0.00488     -0.20425  230323.00000
    -0.00488     -0.16894  230424.00000
    -0.00488     -0.14376  230523.00000
    -0.00488     -0.12331  230623.00000
    -0.00488     -0.10637  230724.00000
    -0.00488     -0.09370  230823.00000
    -0.00488     -0.07241  230923.00000
     2.99316     -2.24909  231499.00000
     2.99316     -2.51860  231600.00000
     2.99316     -2.51860  231701.00000
     2.99316     -2.35226  231800.00000
     2.99316     -2.30410  231900.00000
     2.99316     -2.26879  232001.00000
     2.99316     -2.23999  232100.00000
     2.99316     -2.21703  232200.00000
     2.99316     -2.19701  232301.00000
     2.99316     -2.17926  232400.00000
    -2.99316      3.14979  233693.00000
    -2.99316      3.43980  233795.00000
    -2.99316      3.43572  233894.00000
    -2.99316      3.26142  233994.00000
    -2.99316      3.21295  234095.00000
    -2.99316      3.17529  234194.00000
    -2.99316      3.14493  234294.00000
    -2.99316      3.11897  234395.00000
    -2.99316      3.09670  234494.00000
    -2.99316      3.07863  234594.00000
    -0.00488     -0.03432  235434.00000
    -0.00488     -0.25477  235535.00000
    -0.00488     -0.25395  235636.00000
    -0.00488     -0.19593  235735.00000
    -0.00488     -0.15451  235835.00000
    -0.00488     -0.10497  235936.00000
    -0.00488     -0.08749  236035.00000
    -0.00488     -0.07301  236136.00000
    -0.00488     -0.06098  236235.00000
    -0.00488     -0.05004  236335.00000
     2.49268     -1.79386  236868.00000
     2.49268     -2.13055  236968.00000
     2.49268     -2.16856  237068.00000
     2.49268     -2.01347  237169.00000
     2.49268     -1.96800  237268.00000
     2.49268     -1.93401  237368.00000
     2.49268     -1.90713  237469.00000
     2.49268     -1.88441  237568.00000
     2.49268     -1.86675  237668.00000
     2.49268     -1.85110  237769.00000
    -2.49512      2.63836  238976.00000
    -2.49512      3.01371  239076.00000
    -2.49512      3.05715  239177.00000
    -2.49512      2.89512  239276.00000
    -2.49512      2.84757  239376.00000
    -2.49512      2.81134  239477.00000
    -2.49512      2.78276  239576.00000
    -2.49512      2.75961  239677.00000
    -2.49512      2.73956  239776.00000
    -2.49512      2.72241  239876.00000
    -0.00488      0.42470  240673.00000
    -0.00488     -0.22213  240773.00000
    -0.00488     -0.18931  240874.00000
    -0.00488     -0.13887  240973.00000
    -0.00488     -0.10489  241073.00000
    -0.00488     -0.08168  241174.00000
    -0.00488     -0.06406  241273.00000
    -0.00488     -0.04883  241373.00000
    -0.00488     -0.02600  241474.00000
    -0.00488     -0.01771  241573.00000
     1.99463     -1.30329  242076.00000
     1.99463     -1.80234  242176.00000
     1.99463     -1.73537  242276.00000
     1.99463     -1.66788  242377.00000
     1.99463     -1.62393  242476.00000
     1.99463     -1.59194  242576.00000
     1.99463     -1.56752  242677.00000
     1.99463     -1.54761  242776.00000
     1.99463     -1.53019  242877.00000
     1.99463     -1.50131  242976.00000
    -1.99463      2.43207  244124.00000
    -1.99463      2.63807  244225.00000
    -1.99463      2.59743  244325.00000
    -1.99463      2.51814  244426.00000
    -1.99463      2.46730  244525.00000
    -1.99463      2.43229  244626.00000
    -1.99463      2.38142  244725.00000
    -1.99463      2.36151  244825.00000
    -1.99463      2.34435  244926.00000
    -1.99463      2.32960  245025.00000
    -0.00488      0.05645  245785.00000
    -0.00488     -0.15335  245886.00000
    -0.00488     -0.14327  245986.00000
    -0.00488     -0.09446  246087.00000
    -0.00488     -0.06320  246186.00000
    -0.00488     -0.04067  246286.00000
    -0.00488     -0.02438  246387.00000
    -0.00488      0.00150  246486.00000
    -0.00488      0.01074  246586.00000
    -0.00488      0.01841  246687.00000
     1.49170     -1.03718  247145.00000
     1.49170     -1.37271  247246.00000
     1.49170     -1.40313  247346.00000
     1.49170     -1.33522  247447.00000
     1.49170     -1.25263  247546.00000
     1.49170     -1.22791  247646.00000
     1.49170     -1.20668  247747.00000
     1.49170     -1.18917  247846.00000
     1.49170     -1.17553  247946.00000
     1.49170     -1.16343  248047.00000
    -1.49414      1.60194  249108.00000
    -1.49414      2.18172  249209.00000
    -1.49414      2.12488  249309.00000
    -1.49414      2.06558  249410.00000
    -1.49414      2.02727  249509.00000
    -1.49414      1.99869  249609.00000
    -1.49414      1.97662  249710.00000
    -1.49414      1.95882  249809.00000
    -1.49414      1.94342  249909.00000
    -1.49414      1.91786  250010.00000
    -0.00488      0.30513  250720.00000
    -0.00488     -0.04845  250821.00000
    -0.00488     -0.08092  250920.00000
    -0.00488     -0.03772  251020.00000
    -0.00488     -0.00604  251121.00000
    -0.00488      0.01506  251220.00000
    -0.00488      0.04132  251320.00000
    -0.00488      0.05070  251421.00000
    -0.00488      0.05983  251520.00000
    -0.00488      0.06674  251620.00000
     0.99121     -0.75623  252025.00000
     0.99121     -0.98769  252126.00000
     0.99121     -0.96865  252227.00000
     0.99121     -0.91653  252326.00000
     0.99121     -0.88333  252426.00000
     0.99121     -0.86034  252527.00000
     0.99121     -0.84219  252626.00000
     0.99121     -0.81377  252726.00000
     0.99121     -0.80258  252826.00000
     0.99121     -0.79321  252926.00000
    -0.99365      1.38626  253878.00000
    -0.99365      1.66554  253979.00000
    -0.99365      1.66435  254078.00000
    -0.99365      1.60935  254178.00000
    -0.99365      1.57434  254279.00000
    -0.99365      1.54989  254378.00000
    -0.99365      1.52998  254478.00000
    -0.99365      1.50102  254579.00000
    -0.99365      1.49056  254678.00000
    -0.99365      1.48040  254778.00000
    -0.00488      0.98591  255446.00000
    -0.00488      0.02846  255547.00000
    -0.00488      0.02047  255648.00000
    -0.00488      0.05340  255747.00000
    -0.00488      0.07496  255848.00000
    -0.00488      0.08992  255947.00000
    -0.00488      0.10073  256047.00000
    -0.00488      0.11027  256148.00000
    -0.00488      0.12340  256247.00000
    -0.00488      0.12910  256347.00000
     0.49316     -0.19276  256685.00000
     0.49316     -0.47159  256786.00000
     0.49316     -0.49607  256885.00000
     0.49316     -0.45970  256985.00000
     0.49316     -0.43774  257086.00000
     0.49316     -0.42167  257185.00000
     0.49316     -0.40767  257285.00000
     0.49316     -0.39676  257386.00000
     0.49316     -0.38182  257485.00000
     0.49316     -0.37547  257585.00000
    -0.49316      0.61699  258397.00000
    -0.49316      0.95239  258498.00000
    -0.49316      1.09009  258597.00000
    -0.49316      1.06339  258697.00000
    -0.49316      1.01671  258798.00000
    -0.49316      1.00326  258897.00000
    -0.49316      0.99129  258997.00000
    -0.49316      0.98154  259098.00000
    -0.49316      0.97457  259197.00000
    -0.49316      0.96849  259297.00000
    -0.00488      0.77309  259893.00000
    -0.00488      0.35259  259994.00000
    -0.00488      0.14050  260093.00000
    -0.00488      0.14155  260193.00000
    -0.00488      0.17224  260294.00000
    -0.00488      0.17916  260393.00000
    -0.00488      0.18507  260493.00000
    -0.00488      0.19115  260594.00000
    -0.00488      0.19604  260693.00000
    -0.00488      0.19925  260793.00000