# Acquired on 27/02/2024 15:23:13 
# SPIDER: Tracking_07714532C-2_bis
# STATIC MEASUREMENT

# pos [mm]		 force [N]		 time [ms]
0.23438			-0.03434			237.00000
0.23438			-0.19184			337.00000
0.23438			-0.34023			437.00000
0.23438			-0.35569			538.00000
0.23438			-0.35403			637.00000
0.23438			-0.35300			738.00000
0.23438			-0.35250			837.00000
0.23438			-0.35122			937.00000
0.23438			-0.35024			1038.00000
0.23438			-0.35014			1137.00000
-0.24414			-0.00687			1918.00000
-0.24414			0.17061			2020.00000
-0.24414			0.36395			2119.00000
-0.24414			0.35812			2218.00000
-0.24414			0.35488			2320.00000
-0.24414			0.35189			2419.00000
-0.24414			0.35002			2519.00000
-0.24414			0.34771			2620.00000
-0.24414			0.34588			2719.00000
-0.24414			0.34445			2819.00000
-0.00732			0.31323			3403.00000
-0.00732			0.18232			3503.00000
-0.00732			0.04041			3604.00000
-0.00732			0.00454			3703.00000
-0.00732			0.00610			3803.00000
-0.00732			0.00713			3903.00000
-0.00732			0.00796			4003.00000
-0.00732			0.00789			4103.00000
-0.00732			0.00849			4204.00000
-0.00732			0.01050			4303.00000
0.49316			-0.32251			4695.00000
0.49316			-0.65284			4796.00000
0.49316			-0.78321			4896.00000
0.49316			-0.79075			4996.00000
0.49316			-0.78477			5097.00000
0.49316			-0.77899			5196.00000
0.49316			-0.77670			5296.00000
0.49316			-0.77522			5397.00000
0.49316			-0.77323			5496.00000
0.49316			-0.77120			5596.00000
-0.49072			0.37700			6530.00000
-0.49072			0.64581			6631.00000
-0.49072			0.72263			6730.00000
-0.49072			0.72069			6830.00000
-0.49072			0.71363			6930.00000
-0.49072			0.70868			7030.00000
-0.49072			0.70239			7130.00000
-0.49072			0.69830			7231.00000
-0.49072			0.69686			7330.00000
-0.49072			0.69528			7430.00000
-0.00732			0.55761			8081.00000
-0.00732			0.01862			8182.00000
-0.00732			-0.03434			8282.00000
-0.00732			-0.03429			8383.00000
-0.00732			-0.03142			8482.00000
-0.00732			-0.02919			8582.00000
-0.00732			-0.02846			8683.00000
-0.00732			-0.02753			8782.00000
-0.00732			-0.02509			8882.00000
-0.00732			-0.02582			8983.00000
0.74219			-0.80797			9428.00000
0.74219			-1.12130			9530.00000
0.74219			-1.20558			9629.00000
0.74219			-1.19965			9729.00000
0.74219			-1.19226			9830.00000
0.74219			-1.18816			9929.00000
0.74219			-1.18012			10029.00000
0.74219			-1.17806			10129.00000
0.74219			-1.17552			10229.00000
0.74219			-1.17275			10329.00000
-0.74463			0.73582			11361.00000
-0.74463			1.00261			11461.00000
-0.74463			1.06891			11562.00000
-0.74463			1.06130			11663.00000
-0.74463			1.05139			11762.00000
-0.74463			1.04556			11862.00000
-0.74463			1.03855			11963.00000
-0.74463			1.03448			12062.00000
-0.74463			1.03171			12162.00000
-0.74463			1.02912			12263.00000
-0.00732			0.41832			12966.00000
-0.00732			0.06736			13068.00000
-0.00732			-0.05575			13167.00000
-0.00732			-0.06696			13267.00000
-0.00732			-0.05847			13368.00000
-0.00732			-0.05696			13467.00000
-0.00732			-0.05457			13567.00000
-0.00732			-0.05201			13668.00000
-0.00732			-0.05022			13767.00000
-0.00732			-0.05055			13867.00000
0.99121			-1.21139			14369.00000
0.99121			-1.53251			14470.00000
0.99121			-1.62262			14570.00000
0.99121			-1.61837			14670.00000
0.99121			-1.60746			14770.00000
0.99121			-1.59804			14871.00000
0.99121			-1.59399			14970.00000
0.99121			-1.59070			15070.00000
0.99121			-1.58693			15171.00000
0.99121			-1.58439			15270.00000
-0.99121			1.00301			16399.00000
-0.99121			1.30325			16500.00000
-0.99121			1.39642			16600.00000
-0.99121			1.39577			16701.00000
-0.99121			1.37883			16800.00000
-0.99121			1.37284			16900.00000
-0.99121			1.36746			17001.00000
-0.99121			1.36322			17100.00000
-0.99121			1.36015			17200.00000
-0.99121			1.35651			17301.00000
-0.00732			0.28286			18060.00000
-0.00732			-0.00275			18161.00000
-0.00732			-0.08385			18261.00000
-0.00732			-0.08825			18362.00000
-0.00732			-0.08303			18461.00000
-0.00732			-0.07385			18561.00000
-0.00732			-0.07207			18662.00000
-0.00732			-0.07053			18761.00000
-0.00732			-0.06759			18861.00000
-0.00732			-0.06737			18962.00000
1.24268			-1.45206			19499.00000
1.24268			-1.87053			19601.00000
1.24268			-2.03762			19700.00000
1.24268			-2.02237			19800.00000
1.24268			-2.01498			19901.00000
1.24268			-2.01068			20000.00000
1.24268			-2.00472			20100.00000
1.24268			-1.99914			20201.00000
1.24268			-1.99643			20300.00000
1.24268			-1.99289			20400.00000
-1.24512			1.23684			21615.00000
-1.24512			1.59235			21716.00000
-1.24512			1.73997			21817.00000
-1.24512			1.72589			21916.00000
-1.24512			1.71772			22016.00000
-1.24512			1.71139			22117.00000
-1.24512			1.70568			22216.00000
-1.24512			1.70003			22316.00000
-1.24512			1.69608			22417.00000
-1.24512			1.68859			22516.00000
-0.00732			0.63553			23300.00000
-0.00732			-0.06030			23402.00000
-0.00732			-0.10806			23501.00000
-0.00732			-0.10313			23601.00000
-0.00732			-0.09680			23702.00000
-0.00732			-0.09220			23801.00000
-0.00732			-0.08815			23901.00000
-0.00732			-0.08398			24002.00000
-0.00732			-0.08001			24101.00000
-0.00732			-0.07926			24201.00000
1.49170			-1.88217			24771.00000
1.49170			-2.29848			24871.00000
1.49170			-2.45127			24972.00000
1.49170			-2.44408			25071.00000
1.49170			-2.43629			25171.00000
1.49170			-2.42953			25272.00000
1.49170			-2.42257			25371.00000
1.49170			-2.41782			25471.00000
1.49170			-2.41261			25572.00000
1.49170			-2.40746			25671.00000
-1.48926			1.72911			26947.00000
-1.48926			2.00230			27047.00000
-1.48926			2.08193			27148.00000
-1.48926			2.07755			27247.00000
-1.48926			2.06604			27347.00000
-1.48926			2.04943			27448.00000
-1.48926			2.04219			27547.00000
-1.48926			2.03787			27647.00000
-1.48926			2.03387			27748.00000
-1.48926			2.02980			27847.00000
-0.00732			0.14362			28679.00000
-0.00732			-0.06990			28781.00000
-0.00732			-0.11693			28880.00000
-0.00732			-0.11243			28980.00000
-0.00732			-0.10738			29081.00000
-0.00732			-0.10346			29180.00000
-0.00732			-0.09846			29281.00000
-0.00732			-0.09368			29380.00000
-0.00732			-0.09200			29480.00000
-0.00732			-0.08974			29581.00000
1.73828			-2.53646			30179.00000
1.73828			-2.82877			30279.00000
1.73828			-2.89583			30380.00000
1.73828			-2.88075			30481.00000
1.73828			-2.86819			30580.00000
1.73828			-2.85874			30680.00000
1.73828			-2.84373			30781.00000
1.73828			-2.83805			30880.00000
1.73828			-2.83347			30980.00000
1.73828			-2.82940			31081.00000
-1.74316			1.96658			32416.00000
-1.74316			2.29691			32517.00000
-1.74316			2.41497			32618.00000
-1.74316			2.40335			32717.00000
-1.74316			2.39413			32817.00000
-1.74316			2.38599			32918.00000
-1.74316			2.37852			33017.00000
-1.74316			2.37264			33117.00000
-1.74316			2.36711			33218.00000
-1.74316			2.36336			33317.00000
-0.00732			0.35548			34174.00000
-0.00732			0.00952			34276.00000
-0.00732			-0.11847			34375.00000
-0.00732			-0.12593			34475.00000
-0.00732			-0.11904			34576.00000
-0.00732			-0.11462			34675.00000
-0.00732			-0.11100			34775.00000
-0.00732			-0.10881			34876.00000
-0.00732			-0.10535			34975.00000
-0.00732			-0.10359			35075.00000
1.98975			-3.05361			35718.00000
1.98975			-3.30541			35819.00000
1.98975			-3.35601			35918.00000
1.98975			-3.34085			36018.00000
1.98975			-3.32680			36119.00000
1.98975			-3.31637			36218.00000
1.98975			-3.30174			36318.00000
1.98975			-3.29450			36419.00000
1.98975			-3.29008			36518.00000
1.98975			-3.28475			36618.00000
-1.99219			2.43269			38026.00000
-1.99219			2.69175			38128.00000
-1.99219			2.76568			38227.00000
-1.99219			2.75894			38328.00000
-1.99219			2.73504			38427.00000
-1.99219			2.72712			38527.00000
-1.99219			2.71955			38628.00000
-1.99219			2.71294			38727.00000
-1.99219			2.70729			38827.00000
-1.99219			2.70281			38928.00000
-0.00732			0.38642			39814.00000
-0.00732			0.02081			39916.00000
-0.00732			-0.14677			40015.00000
-0.00732			-0.13890			40115.00000
-0.00732			-0.13189			40216.00000
-0.00732			-0.12573			40315.00000
-0.00732			-0.12214			40415.00000
-0.00732			-0.11852			40516.00000
-0.00732			-0.11520			40615.00000
-0.00732			-0.11143			40716.00000
2.23633			-3.29284			41376.00000
2.23633			-3.68392			41476.00000
2.23633			-3.80791			41577.00000
2.23633			-3.79853			41676.00000
2.23633			-3.76581			41776.00000
2.23633			-3.75462			41877.00000
2.23633			-3.74718			41976.00000
2.23633			-3.73942			42076.00000
2.23633			-3.73228			42177.00000
2.23633			-3.72660			42276.00000
-2.24121			2.82492			43723.00000
-2.24121			3.05991			43823.00000
-2.24121			3.11644			43924.00000
-2.24121			3.10347			44023.00000
-2.24121			3.08889			44123.00000
-2.24121			3.07921			44224.00000
-2.24121			3.06229			44323.00000
-2.24121			3.05654			44423.00000
-2.24121			3.05051			44524.00000
-2.24121			3.04417			44623.00000
-0.00732			0.41460			45542.00000
-0.00732			-0.12958			45642.00000
-0.00732			-0.15821			45743.00000
-0.00732			-0.15092			45844.00000
-0.00732			-0.14300			45943.00000
-0.00732			-0.13669			46043.00000
-0.00732			-0.13269			46144.00000
-0.00732			-0.12872			46243.00000
-0.00732			-0.12123			46343.00000
-0.00732			-0.11975			46444.00000
2.49268			-4.00957			47140.00000
2.49268			-4.24893			47240.00000
2.49268			-4.29261			47341.00000
2.49268			-4.27411			47440.00000
2.49268			-4.25609			47540.00000
2.49268			-4.24438			47641.00000
2.49268			-4.23478			47740.00000
2.49268			-4.21713			47841.00000
2.49268			-4.21042			47940.00000
2.49268			-4.20270			48040.00000
-2.49023			3.07051			49566.00000
-2.49023			3.37510			49667.00000
-2.49023			3.48052			49768.00000
-2.49023			3.46541			49867.00000
-2.49023			3.45216			49967.00000
-2.49023			3.43987			50068.00000
-2.49023			3.43258			50167.00000
-2.49023			3.42544			50267.00000
-2.49023			3.41828			50368.00000
-2.49023			3.41215			50467.00000
-0.00732			0.29591			51416.00000
-0.00732			-0.02720			51517.00000
-0.00732			-0.16225			51616.00000
-0.00732			-0.15416			51716.00000
-0.00732			-0.14664			51817.00000
-0.00732			-0.13915			51916.00000
-0.00732			-0.13453			52016.00000
-0.00732			-0.13031			52117.00000
-0.00732			-0.12736			52216.00000
-0.00732			-0.12430			52316.00000
2.73926			-4.46491			53026.00000
2.73926			-4.72991			53126.00000
2.73926			-4.77591			53227.00000
2.73926			-4.75181			53326.00000
2.73926			-4.73320			53426.00000
2.73926			-4.72056			53527.00000
2.73926			-4.70935			53626.00000
2.73926			-4.68904			53726.00000
2.73926			-4.68238			53827.00000
2.73926			-4.67547			53926.00000
-2.74170			3.64188			55488.00000
-2.74170			3.82198			55589.00000
-2.74170			3.84962			55689.00000
-2.74170			3.83210			55790.00000
-2.74170			3.81702			55889.00000
-2.74170			3.80529			55989.00000
-2.74170			3.79468			56090.00000
-2.74170			3.77937			56189.00000
-2.74170			3.77352			56290.00000
-2.74170			3.76803			56389.00000
-0.00732			0.12831			57369.00000
-0.00732			-0.10220			57469.00000
-0.00732			-0.17055			57570.00000
-0.00732			-0.16914			57669.00000
-0.00732			-0.15325			57769.00000
-0.00732			-0.14694			57870.00000
-0.00732			-0.14207			57969.00000
-0.00732			-0.13787			58069.00000
-0.00732			-0.13287			58170.00000
-0.00732			-0.13051			58269.00000
2.99072			-4.99217			59003.00000
2.99072			-5.25873			59103.00000
2.99072			-5.30010			59204.00000
2.99072			-5.27562			59303.00000
2.99072			-5.25745			59404.00000
2.99072			-5.24327			59503.00000
2.99072			-5.23040			59603.00000
2.99072			-5.21886			59704.00000
2.99072			-5.20102			59803.00000
2.99072			-5.19255			59903.00000
-2.99072			3.83120			61509.00000
-2.99072			4.13415			61609.00000
-2.99072			4.22816			61710.00000
-2.99072			4.22167			61809.00000
-2.99072			4.18837			61909.00000
-2.99072			4.17723			62010.00000
-2.99072			4.16680			62109.00000
-2.99072			4.15818			62209.00000
-2.99072			4.15144			62310.00000
-2.99072			4.14431			62409.00000
-0.00732			0.02802			63413.00000
-0.00732			-0.14554			63514.00000
-0.00732			-0.18776			63613.00000
-0.00732			-0.18128			63714.00000
-0.00732			-0.17100			63813.00000
-0.00732			-0.16391			63913.00000
-0.00732			-0.15212			64014.00000
-0.00732			-0.14813			64113.00000
-0.00732			-0.14486			64213.00000
-0.00732			-0.14222			64314.00000
3.24219			-5.53496			65076.00000
3.24219			-5.80579			65178.00000
3.24219			-5.84676			65277.00000
3.24219			-5.81499			65378.00000
3.24219			-5.79322			65477.00000
3.24219			-5.77852			65577.00000
3.24219			-5.76407			65678.00000
3.24219			-5.74230			65777.00000
3.24219			-5.73438			65877.00000
3.24219			-5.72463			65978.00000
-3.24219			4.36874			67636.00000
-3.24219			4.58326			67738.00000
-3.24219			4.62484			67837.00000
-3.24219			4.60360			67938.00000
-3.24219			4.58442			68037.00000
-3.24219			4.57145			68137.00000
-3.24219			4.55051			68238.00000
-3.24219			4.54121			68337.00000
-3.24219			4.53631			68437.00000
-3.24219			4.52855			68538.00000
-0.00732			-0.00549			69565.00000
-0.00732			-0.16301			69666.00000
-0.00732			-0.19917			69766.00000
-0.00732			-0.19226			69867.00000
-0.00732			-0.18083			69966.00000
-0.00732			-0.17399			70066.00000
-0.00732			-0.16839			70167.00000
-0.00732			-0.15949			70266.00000
-0.00732			-0.15677			70366.00000
-0.00732			-0.15403			70467.00000
3.49121			-6.00669			71255.00000
3.49121			-6.34755			71356.00000
3.49121			-6.43143			71455.00000
3.49121			-6.40828			71555.00000
3.49121			-6.38173			71656.00000
3.49121			-6.34916			71755.00000
3.49121			-6.33506			71855.00000
3.49121			-6.32335			71956.00000
3.49121			-6.31387			72055.00000
3.49121			-6.30457			72155.00000
-3.49121			4.80021			73877.00000
-3.49121			4.99611			73977.00000
-3.49121			5.02956			74077.00000
-3.49121			5.00863			74178.00000
-3.49121			4.98932			74277.00000
-3.49121			4.97492			74377.00000
-3.49121			4.96431			74478.00000
-3.49121			4.94556			74577.00000
-3.49121			4.93830			74677.00000
-3.49121			4.92983			74778.00000
-0.00732			0.02800			75824.00000
-0.00732			-0.16087			75925.00000
-0.00732			-0.20938			76024.00000
-0.00732			-0.20438			76124.00000
-0.00732			-0.19284			76225.00000
-0.00732			-0.18379			76324.00000
-0.00732			-0.17067			76424.00000
-0.00732			-0.16572			76525.00000
-0.00732			-0.16260			76624.00000
-0.00732			-0.16021			76724.00000
3.74023			-6.33800			77544.00000
3.74023			-6.84015			77645.00000
3.74023			-7.02022			77745.00000
3.74023			-6.98540			77846.00000
3.74023			-6.96369			77945.00000
3.74023			-6.94468			78045.00000
3.74023			-6.92953			78146.00000
3.74023			-6.91709			78245.00000
3.74023			-6.90613			78345.00000
3.74023			-6.88496			78446.00000
-3.74512			5.24763			80202.00000
-3.74512			5.42969			80302.00000
-3.74512			5.45648			80403.00000
-3.74512			5.43235			80502.00000
-3.74512			5.41234			80602.00000
-3.74512			5.39822			80703.00000
-3.74512			5.38555			80802.00000
-3.74512			5.36755			80902.00000
-3.74512			5.35825			81003.00000
-3.74512			5.34855			81102.00000
-0.00732			0.07741			82178.00000
-0.00732			-0.14184			82280.00000
-0.00732			-0.21230			82379.00000
-0.00732			-0.21230			82479.00000
-0.00732			-0.19171			82580.00000
-0.00732			-0.18402			82679.00000
-0.00732			-0.17753			82779.00000
-0.00732			-0.17303			82880.00000
-0.00732			-0.16876			82979.00000
-0.00732			-0.16469			83079.00000
3.99170			-7.25153			83905.00000
3.99170			-7.59483			84005.00000
3.99170			-7.66468			84105.00000
3.99170			-7.63298			84206.00000
3.99170			-7.60546			84305.00000
3.99170			-7.58372			84405.00000
3.99170			-7.55220			84506.00000
3.99170			-7.53867			84605.00000
3.99170			-7.52636			84706.00000
3.99170			-7.51555			84805.00000
-3.99170			5.28262			86605.00000
-3.99170			5.88254			86705.00000
-3.99170			5.89793			86806.00000
-3.99170			5.87209			86905.00000
-3.99170			5.85334			87005.00000
-3.99170			5.83863			87106.00000
-3.99170			5.82594			87205.00000
-3.99170			5.81558			87305.00000
-3.99170			5.80525			87406.00000
-3.99170			5.78570			87505.00000
-0.00488			0.06859			88582.00000
-0.00488			-0.15582			88684.00000
-0.00488			-0.22471			88783.00000
-0.00488			-0.22278			88883.00000
-0.00488			-0.20822			88984.00000
-0.00488			-0.19219			89083.00000
-0.00488			-0.18575			89183.00000
-0.00488			-0.18083			89284.00000
-0.00488			-0.17766			89383.00000
-0.00488			-0.17133			89484.00000
4.24072			-7.86432			90339.00000
4.24072			-8.23589			90439.00000
4.24072			-8.31927			90539.00000
4.24072			-8.28109			90640.00000
4.24072			-8.24778			90739.00000
4.24072			-8.20757			90839.00000
4.24072			-8.19080			90940.00000
4.24072			-8.17610			91039.00000
4.24072			-8.16235			91139.00000
4.24072			-8.15101			91240.00000
-4.24316			5.90190			93094.00000
-4.24316			6.24763			93194.00000
-4.24316			6.36335			93295.00000
-4.24316			6.32882			93394.00000
-4.24316			6.30989			93495.00000
-4.24316			6.29255			93594.00000
-4.24316			6.27978			93694.00000
-4.24316			6.27045			93795.00000
-4.24316			6.26027			93894.00000
-4.24316			6.24899			93994.00000
-0.00732			0.06630			95102.00000
-0.00732			-0.15795			95203.00000
-0.00732			-0.22987			95302.00000
-0.00732			-0.22828			95402.00000
-0.00732			-0.20367			95503.00000
-0.00732			-0.19676			95602.00000
-0.00732			-0.18985			95702.00000
-0.00732			-0.18339			95803.00000
-0.00732			-0.17819			95902.00000
-0.00732			-0.17505			96002.00000
4.49463			-8.30813			96865.00000
4.49463			-8.85309			96966.00000
4.49463			-9.02571			97066.00000
4.49463			-9.01221			97167.00000
4.49463			-8.94774			97266.00000
4.49463			-8.92618			97366.00000
4.49463			-8.90798			97467.00000
4.49463			-8.89154			97566.00000
4.49463			-8.87611			97666.00000
4.49463			-8.86324			97767.00000
-4.49219			6.12686			99626.00000
-4.49219			6.83838			99728.00000
-4.49219			6.85710			99827.00000
-4.49219			6.82890			99927.00000
-4.49219			6.80769			100028.00000
-4.49219			6.79047			100127.00000
-4.49219			6.77506			100227.00000
-4.49219			6.76285			100328.00000
-4.49219			6.74158			100427.00000
-4.49219			6.73181			100527.00000
-0.00732			0.24438			101648.00000
-0.00732			-0.21948			101748.00000
-0.00732			-0.24022			101848.00000
-0.00732			-0.22717			101949.00000
-0.00732			-0.21493			102048.00000
-0.00732			-0.20641			102148.00000
-0.00732			-0.19877			102249.00000
-0.00732			-0.19264			102348.00000
-0.00732			-0.18367			102448.00000
-0.00732			-0.17816			102549.00000
4.74121			-9.25082			103441.00000
4.74121			-9.65363			103541.00000
4.74121			-9.74058			103641.00000
4.74121			-9.69212			103742.00000
4.74121			-9.65321			103841.00000
4.74121			-9.60580			103941.00000
4.74121			-9.58635			104042.00000
4.74121			-9.57061			104141.00000
4.74121			-9.55516			104241.00000
4.74121			-9.54128			104342.00000
-4.74365			6.92248			106281.00000
-4.74365			7.27055			106383.00000
-4.74365			7.37443			106482.00000
-4.74365			7.32761			106582.00000
-4.74365			7.30778			106683.00000
-4.74365			7.29048			106782.00000
-4.74365			7.27553			106882.00000
-4.74365			7.26407			106983.00000
-4.74365			7.25162			107082.00000
-4.74365			7.24134			107182.00000
-0.00488			0.17199			108332.00000
-0.00488			-0.23039			108434.00000
-0.00488			-0.24542			108533.00000
-0.00488			-0.23195			108633.00000
-0.00488			-0.21974			108734.00000
-0.00488			-0.20983			108833.00000
-0.00488			-0.20335			108933.00000
-0.00488			-0.19762			109034.00000
-0.00488			-0.18558			109133.00000
-0.00488			-0.17922			109233.00000
4.99268			-9.86522			110138.00000
4.99268			-10.37707			110239.00000
4.99268			-10.52142			110339.00000
4.99268			-10.48699			110440.00000
4.99268			-10.41186			110539.00000
4.99268			-10.38745			110639.00000
4.99268			-10.36621			110740.00000
4.99268			-10.34701			110839.00000
4.99268			-10.32944			110939.00000
4.99268			-10.31373			111040.00000
-4.99268			7.28475			112979.00000
-4.99268			7.74429			113080.00000
-4.99268			7.91526			113179.00000
-4.99268			7.88540			113279.00000
-4.99268			7.86155			113380.00000
-4.99268			7.84225			113479.00000
-4.99268			7.82593			113579.00000
-4.99268			7.81266			113680.00000
-4.99268			7.80040			113779.00000
-4.99268			7.77757			113879.00000
-0.00488			-0.04738			115043.00000
-0.00488			-0.21451			115143.00000
-0.00488			-0.25405			115243.00000
-0.00488			-0.24341			115344.00000
-0.00488			-0.22946			115443.00000
-0.00488			-0.21850			115543.00000
-0.00488			-0.20340			115644.00000
-0.00488			-0.19689			115743.00000
-0.00488			-0.19179			115843.00000
-0.00488			-0.18701			115944.00000
5.24170			-10.94759			116871.00000
5.24170			-11.27615			116973.00000
5.24170			-11.30425			117072.00000
5.24170			-11.24310			117172.00000
5.24170			-11.20675			117273.00000
5.24170			-11.17800			117372.00000
5.24170			-11.15223			117473.00000
5.24170			-11.11295			117572.00000
5.24170			-11.09538			117672.00000
5.24170			-11.07992			117773.00000
-5.24414			7.72941			119767.00000
-5.24414			8.46120			119868.00000
-5.24414			8.47869			119967.00000
-5.24414			8.44227			120067.00000
-5.24414			8.41733			120168.00000
-5.24414			8.39718			120267.00000
-5.24414			8.38019			120367.00000
-5.24414			8.36417			120468.00000
-5.24414			8.33924			120567.00000
-5.24414			8.32911			120667.00000
-0.00732			0.05356			121848.00000
-0.00732			-0.17944			121949.00000
-0.00732			-0.25814			122050.00000
-0.00732			-0.24339			122149.00000
-0.00732			-0.22981			122249.00000
-0.00732			-0.21981			122350.00000
-0.00732			-0.21245			122449.00000
-0.00732			-0.20714			122549.00000
-0.00732			-0.20036			122649.00000
-0.00732			-0.19530			122749.00000
5.49072			-11.35545			123696.00000
5.49072			-11.96146			123798.00000
5.49072			-12.16282			123897.00000
5.49072			-12.08854			123997.00000
5.49072			-12.05262			124098.00000
5.49072			-12.02198			124197.00000
5.49072			-11.99700			124297.00000
5.49072			-11.97541			124398.00000
5.49072			-11.95532			124497.00000
5.49072			-11.93708			124597.00000
-5.49316			8.28352			126629.00000
-5.49316			9.05569			126730.00000
-5.49316			9.08479			126831.00000
-5.49316			9.05219			126930.00000
-5.49316			9.02455			127031.00000
-5.49316			9.00306			127130.00000
-5.49316			8.98451			127230.00000
-5.49316			8.96799			127331.00000
-5.49316			8.93999			127430.00000
-5.49316			8.92858			127530.00000
-0.00488			0.12145			128723.00000
-0.00488			-0.15373			128824.00000
-0.00488			-0.26807			128923.00000
-0.00488			-0.25236			129023.00000
-0.00488			-0.24082			129124.00000
-0.00488			-0.22981			129223.00000
-0.00488			-0.22102			129323.00000
-0.00488			-0.21468			129424.00000
-0.00488			-0.20895			129523.00000
-0.00488			-0.19666			129623.00000
5.74219			-12.65362			130601.00000
5.74219			-13.00765			130703.00000
5.74219			-13.04993			130802.00000
5.74219			-12.98287			130902.00000
5.74219			-12.93808			131003.00000
5.74219			-12.90412			131102.00000
5.74219			-12.84978			131202.00000
5.74219			-12.82452			131303.00000
5.74219			-12.80363			131402.00000
5.74219			-12.78626			131502.00000
-5.74463			9.47977			133577.00000
-5.74463			9.68723			133677.00000
-5.74463			9.70364			133778.00000
-5.74463			9.66363			133877.00000
-5.74463			9.63568			133977.00000
-5.74463			9.61318			134078.00000
-5.74463			9.59373			134177.00000
-5.74463			9.57654			134277.00000
-5.74463			9.54846			134378.00000
-5.74463			9.53534			134478.00000
-0.00732			-0.12003			135706.00000
-0.00732			-0.25322			135807.00000
-0.00732			-0.28006			135908.00000
-0.00732			-0.26749			136007.00000
-0.00732			-0.25284			136107.00000
-0.00732			-0.23891			136208.00000
-0.00732			-0.22167			136307.00000
-0.00732			-0.21456			136406.00000
-0.00732			-0.20782			136508.00000
-0.00732			-0.20310			136607.00000
5.98877			-13.15819			137591.00000
5.98877			-13.80317			137691.00000
5.98877			-13.99850			137792.00000
5.98877			-13.89844			137891.00000
5.98877			-13.85506			137991.00000
5.98877			-13.81931			138092.00000
5.98877			-13.78985			138191.00000
5.98877			-13.76452			138291.00000
5.98877			-13.74150			138392.00000
5.98877			-13.72091			138491.00000
-5.99121			9.54605			140608.00000
-5.99121			10.35675			140709.00000
-5.99121			10.37065			140809.00000
-5.99121			10.33215			140910.00000
-5.99121			10.30221			141009.00000
-5.99121			10.27831			141109.00000
-5.99121			10.25712			141210.00000
-5.99121			10.23905			141309.00000
-5.99121			10.20946			141410.00000
-5.99121			10.19622			141509.00000
-0.00488			-0.09735			142751.00000
-0.00488			-0.24982			142851.00000
-0.00488			-0.28539			142952.00000
-0.00488			-0.27312			143051.00000
-0.00488			-0.25779			143151.00000
-0.00488			-0.23522			143252.00000
-0.00488			-0.22841			143351.00000
-0.00488			-0.22139			143451.00000
-0.00488			-0.21418			143552.00000
-0.00488			-0.20923			143651.00000
6.24268			-13.77716			144647.00000
6.24268			-14.95300			144749.00000
6.24268			-14.94898			144848.00000
6.24268			-14.87390			144948.00000
6.24268			-14.82522			145049.00000
6.24268			-14.78729			145148.00000
6.24268			-14.75569			145249.00000
6.24268			-14.72706			145348.00000
6.24268			-14.67896			145448.00000
6.24268			-14.65784			145549.00000
-6.24512			10.52280			147689.00000
-6.24512			10.96535			147790.00000
-6.24512			11.08868			147890.00000
-6.24512			11.05603			147991.00000
-6.24512			10.98998			148090.00000
-6.24512			10.96610			148190.00000
-6.24512			10.94602			148291.00000
-6.24512			10.92842			148390.00000
-6.24512			10.91226			148490.00000
-6.24512			10.89720			148591.00000
-0.00488			-0.16703			149844.00000
-0.00488			-0.27229			149945.00000
-0.00488			-0.28323			150044.00000
-0.00488			-0.26669			150144.00000
-0.00488			-0.25151			150245.00000
-0.00488			-0.24128			150344.00000
-0.00488			-0.23238			150444.00000
-0.00488			-0.22245			150545.00000
-0.00488			-0.20963			150644.00000
-0.00488			-0.20450			150744.00000
6.49170			-14.87735			151771.00000
6.49170			-15.97557			151872.00000
6.49170			-15.97280			151971.00000
6.49170			-15.89999			152071.00000
6.49170			-15.84977			152172.00000
6.49170			-15.80948			152271.00000
6.49170			-15.77406			152371.00000
6.49170			-15.74430			152472.00000
6.49170			-15.69210			152571.00000
6.49170			-15.66937			152671.00000
-6.49170			10.99282			154850.00000
-6.49170			11.80410			154950.00000
-6.49170			11.81667			155050.00000
-6.49170			11.77404			155151.00000
-6.49170			11.74018			155250.00000
-6.49170			11.71352			155350.00000
-6.49170			11.69067			155451.00000
-6.49170			11.67056			155550.00000
-6.49170			11.63685			155650.00000
-6.49170			11.62300			155751.00000
-0.00732			-0.02300			157028.00000
-0.00732			-0.22574			157129.00000
-0.00732			-0.29376			157228.00000
-0.00732			-0.27647			157330.00000
-0.00732			-0.26111			157429.00000
-0.00732			-0.24917			157529.00000
-0.00732			-0.24082			157630.00000
-0.00732			-0.23225			157729.00000
-0.00732			-0.22484			157829.00000
-0.00732			-0.21981			157930.00000
6.73828			-16.01918			158961.00000
6.73828			-16.79912			159062.00000
6.73828			-17.02244			159163.00000
6.73828			-16.94347			159262.00000
6.73828			-16.89222			159362.00000
6.73828			-16.85097			159463.00000
6.73828			-16.81500			159562.00000
6.73828			-16.78155			159662.00000
6.73828			-16.75310			159763.00000
6.73828			-16.72753			159862.00000
-6.74316			11.63482			162058.00000
-6.74316			12.58796			162160.00000
-6.74316			12.60825			162259.00000
-6.74316			12.55589			162360.00000
-6.74316			12.52000			162459.00000
-6.74316			12.49124			162559.00000
-6.74316			12.46661			162660.00000
-6.74316			12.44635			162759.00000
-6.74316			12.40968			162859.00000
-6.74316			12.39407			162960.00000
-0.00732			0.02154			164249.00000
-0.00732			-0.29642			164350.00000
-0.00732			-0.30494			164451.00000
-0.00732			-0.28725			164550.00000
-0.00732			-0.27305			164650.00000
-0.00732			-0.26186			164751.00000
-0.00732			-0.25168			164850.00000
-0.00732			-0.24326			164950.00000
-0.00732			-0.23647			165051.00000
-0.00732			-0.22371			165150.00000
6.99219			-17.73794			166201.00000
6.99219			-18.16096			166302.00000
6.99219			-18.20718			166402.00000
6.99219			-18.12371			166503.00000
6.99219			-18.06120			166602.00000
6.99219			-18.01334			166702.00000
6.99219			-17.97262			166803.00000
6.99219			-17.90393			166902.00000
6.99219			-17.87449			167002.00000
6.99219			-17.84908			167103.00000
-6.98975			12.61327			169341.00000
-6.98975			13.21775			169442.00000
-6.98975			13.43197			169541.00000
-6.98975			13.38248			169641.00000
-6.98975			13.34578			169742.00000
-6.98975			13.31683			169841.00000
-6.98975			13.29190			169941.00000
-6.98975			13.26915			170042.00000
-6.98975			13.24957			170141.00000
-6.98975			13.21503			170241.00000
-0.00488			0.00743			171556.00000
-0.00488			-0.30183			171656.00000
-0.00488			-0.30944			171757.00000
-0.00488			-0.29265			171856.00000
-0.00488			-0.27780			171956.00000
-0.00488			-0.26558			172057.00000
-0.00488			-0.25530			172156.00000
-0.00488			-0.24696			172257.00000
-0.00488			-0.23318			172356.00000
-0.00488			-0.22748			172456.00000
7.23877			-18.69950			173526.00000
7.23877			-19.27017			173627.00000
7.23877			-19.38496			173726.00000
7.23877			-19.28867			173826.00000
7.23877			-19.21155			173927.00000
7.23877			-19.11008			174026.00000
7.23877			-19.07044			174126.00000
7.23877			-19.03561			174227.00000
7.23877			-19.00439			174326.00000
7.23877			-18.97606			174426.00000
-7.24121			13.66550			176708.00000
-7.24121			14.17564			176808.00000
-7.24121			14.33133			176909.00000
-7.24121			14.29631			177008.00000
-7.24121			14.20631			177108.00000
-7.24121			14.17665			177209.00000
-7.24121			14.15144			177308.00000
-7.24121			14.12836			177408.00000
-7.24121			14.10717			177509.00000
-7.24121			14.08908			177608.00000
-0.00488			-0.02775			178929.00000
-0.00488			-0.23854			179029.00000
-0.00488			-0.31560			179130.00000
-0.00488			-0.29778			179229.00000
-0.00488			-0.28250			179329.00000
-0.00488			-0.27151			179430.00000
-0.00488			-0.26294			179529.00000
-0.00488			-0.25261			179629.00000
-0.00488			-0.24304			179730.00000
-0.00488			-0.23162			179829.00000
7.49268			-19.89432			180911.00000
7.49268			-20.52473			181012.00000
7.49268			-20.66848			181111.00000
7.49268			-20.58588			181211.00000
7.49268			-20.50661			181312.00000
7.49268			-20.39850			181411.00000
7.49268			-20.35432			181511.00000
7.49268			-20.31576			181612.00000
7.49268			-20.28205			181711.00000
7.49268			-20.25214			181811.00000
-7.49268			14.41548			184106.00000
-7.49268			15.04916			184207.00000
-7.49268			15.26977			184306.00000
-7.49268			15.20188			184406.00000
-7.49268			15.15938			184507.00000
-7.49268			15.12625			184607.00000
-7.49268			15.09807			184706.00000
-7.49268			15.07206			184807.00000
-7.49268			15.05031			184906.00000
-7.49268			15.03081			185006.00000
-0.00488			-0.18766			186346.00000
-0.00488			-0.30333			186447.00000
-0.00488			-0.32553			186547.00000
-0.00488			-0.30957			186648.00000
-0.00488			-0.29303			186747.00000
-0.00488			-0.28059			186847.00000
-0.00488			-0.26076			186948.00000
-0.00488			-0.25078			187047.00000
-0.00488			-0.24334			187148.00000
-0.00488			-0.23844			187247.00000
7.73682			-20.51928			188347.00000
7.73682			-21.96092			188448.00000
7.73682			-21.93832			188548.00000
7.73682			-21.82569			188649.00000
7.73682			-21.75434			188748.00000
7.73682			-21.69648			188848.00000
7.73682			-21.64631			188949.00000
7.73682			-21.60209			189048.00000
7.73682			-21.52792			189148.00000
7.73682			-21.49645			189249.00000
-7.74170			15.45723			191566.00000
-7.74170			16.07027			191667.00000
-7.74170			16.26388			191768.00000
-7.74170			16.22161			191867.00000
-7.74170			16.11632			191967.00000
-7.74170			16.08181			192068.00000
-7.74170			16.05300			192167.00000
-7.74170			16.02616			192268.00000
-7.74170			16.00311			192367.00000
-7.74170			15.98212			192467.00000
-0.00732			-0.19586			193819.00000
-0.00732			-0.30753			193919.00000
-0.00732			-0.32653			194020.00000
-0.00732			-0.30995			194119.00000
-0.00732			-0.29333			194219.00000
-0.00732			-0.28024			194320.00000
-0.00732			-0.26804			194419.00000
-0.00732			-0.24849			194519.00000
-0.00732			-0.24170			194620.00000
-0.00732			-0.23595			194719.00000
7.98828			-21.64173			195825.00000
7.98828			-23.36155			195926.00000
7.98828			-23.38676			196027.00000
7.98828			-23.26938			196126.00000
7.98828			-23.18804			196226.00000
7.98828			-23.12520			196327.00000
7.98828			-23.07023			196426.00000
7.98828			-23.02398			196526.00000
7.98828			-22.94460			196627.00000
7.98828			-22.91175			196726.00000
-7.98828			16.04697			199075.00000
-7.98828			17.28728			199176.00000
-7.98828			17.31053			199277.00000
-7.98828			17.24410			199376.00000
-7.98828			17.19315			199476.00000
-7.98828			17.15402			199577.00000
-7.98828			17.12066			199676.00000
-7.98828			17.09057			199777.00000
-7.98828			17.04116			199876.00000
-7.98828			17.01919			199976.00000
-0.00488			-0.08433			201346.00000
-0.00488			-0.26887			201447.00000
-0.00488			-0.33101			201546.00000
-0.00488			-0.31113			201646.00000
-0.00488			-0.29688			201747.00000
-0.00488			-0.28581			201846.00000
-0.00488			-0.27365			201946.00000
-0.00488			-0.26302			202047.00000
-0.00488			-0.25585			202146.00000
-0.00488			-0.24158			202246.00000
8.23975			-23.42730			203383.00000
8.23975			-24.87678			203484.00000
8.23975			-24.84388			203585.00000
8.23975			-24.71657			203684.00000
8.23975			-24.63589			203784.00000
8.23975			-24.57089			203885.00000
8.23975			-24.51594			203984.00000
8.23975			-24.46774			204084.00000
8.23975			-24.38559			204185.00000
8.23975			-24.35091			204284.00000
-8.24463			17.77885			206681.00000
-8.24463			18.31161			206783.00000
-8.24463			18.45136			206882.00000
-8.24463			18.38525			206982.00000
-8.24463			18.27295			207083.00000
-8.24463			18.23595			207182.00000
-8.24463			18.20363			207282.00000
-8.24463			18.17445			207383.00000
-8.24463			18.14748			207482.00000
-8.24463			18.12463			207582.00000
-0.00732			-0.15650			208977.00000
-0.00732			-0.29273			209077.00000
-0.00732			-0.33156			209178.00000
-0.00732			-0.32236			209277.00000
-0.00732			-0.28702			209378.00000
-0.00732			-0.27599			209477.00000
-0.00732			-0.26551			209577.00000
-0.00732			-0.25515			209678.00000
-0.00732			-0.24801			209777.00000
-0.00732			-0.24193			209877.00000
8.49121			-25.08307			211014.00000
8.49121			-26.16985			211115.00000
8.49121			-26.44207			211216.00000
8.49121			-26.31956			211315.00000
8.49121			-26.23483			211415.00000
8.49121			-26.16631			211516.00000
8.49121			-26.10775			211615.00000
8.49121			-26.05584			211715.00000
8.49121			-26.01040			211816.00000
8.49121			-25.97008			211915.00000
-8.49121			18.95212			214318.00000
-8.49121			19.52473			214419.00000
-8.49121			19.63851			214519.00000
-8.49121			19.56341			214619.00000
-8.49121			19.49896			214720.00000
-8.49121			19.45085			214819.00000
-8.49121			19.37442			214919.00000
-8.49121			19.34453			215020.00000
-8.49121			19.31605			215119.00000
-8.49121			19.29124			215219.00000
-0.00732			-0.17472			216614.00000
-0.00732			-0.31050			216714.00000
-0.00732			-0.34249			216815.00000
-0.00732			-0.32741			216914.00000
-0.00732			-0.30819			217015.00000
-0.00732			-0.28139			217114.00000
-0.00732			-0.27099			217214.00000
-0.00732			-0.26101			217315.00000
-0.00732			-0.25357			217414.00000
-0.00732			-0.24643			217514.00000
8.74023			-26.62402			218675.00000
8.74023			-27.80036			218776.00000
8.74023			-28.14823			218875.00000
8.74023			-27.99631			218975.00000
8.74023			-27.90452			219075.00000
8.74023			-27.83060			219175.00000
8.74023			-27.76817			219276.00000
8.74023			-27.71340			219375.00000
8.74023			-27.66519			219475.00000
8.74023			-27.58131			219576.00000
-8.74268			19.62021			222021.00000
-8.74268			20.87897			222121.00000
-8.74268			20.87068			222222.00000
-8.74268			20.77482			222321.00000
-8.74268			20.71575			222421.00000
-8.74268			20.66779			222522.00000
-8.74268			20.62679			222621.00000
-8.74268			20.59218			222721.00000
-8.74268			20.53146			222822.00000
-8.74268			20.50547			222921.00000
-0.00488			-0.22838			224333.00000
-0.00488			-0.33216			224434.00000
-0.00488			-0.34810			224535.00000
-0.00488			-0.33043			224634.00000
-0.00488			-0.31135			224734.00000
-0.00488			-0.29595			224835.00000
-0.00488			-0.27611			224934.00000
-0.00488			-0.26709			225034.00000
-0.00488			-0.25952			225135.00000
-0.00488			-0.25201			225234.00000
8.98926			-28.42215			226394.00000
8.98926			-29.64600			226496.00000
8.98926			-30.04796			226596.00000
8.98926			-29.81096			226695.00000
8.98926			-29.71512			226796.00000
8.98926			-29.63628			226895.00000
8.98926			-29.57017			226995.00000
8.98926			-29.51193			227096.00000
8.98926			-29.45857			227195.00000
8.98926			-29.41227			227295.00000
-8.99170			21.62496			229773.00000
-8.99170			22.17305			229874.00000
-8.99170			22.24169			229974.00000
-8.99170			22.14962			230075.00000
-8.99170			22.08033			230174.00000
-8.99170			22.02684			230274.00000
-8.99170			21.98240			230375.00000
-8.99170			21.90833			230474.00000
-8.99170			21.87771			230574.00000
-8.99170			21.84961			230675.00000
-0.00488			-0.16685			232098.00000
-0.00488			-0.31012			232199.00000
-0.00488			-0.35207			232300.00000
-0.00488			-0.33870			232399.00000
-0.00488			-0.30419			232499.00000
-0.00488			-0.29135			232600.00000
-0.00488			-0.27958			232699.00000
-0.00488			-0.27073			232799.00000
-0.00488			-0.26151			232900.00000
-0.00488			-0.25470			232999.00000
9.23828			-30.96893			234190.00000
9.23828			-31.79391			234291.00000
9.23828			-31.94628			234392.00000
9.23828			-31.75908			234491.00000
9.23828			-31.62800			234591.00000
9.23828			-31.46110			234692.00000
9.23828			-31.39284			234791.00000
9.23828			-31.33389			234892.00000
9.23828			-31.28330			234991.00000
9.23828			-31.23572			235091.00000
-9.24316			23.15118			237593.00000
-9.24316			23.61683			237693.00000
-9.24316			23.64051			237794.00000
-9.24316			23.51863			237893.00000
-9.24316			23.44722			237993.00000
-9.24316			23.39210			238094.00000
-9.24316			23.34567			238193.00000
-9.24316			23.30604			238293.00000
-9.24316			23.23915			238394.00000
-9.24316			23.20974			238493.00000
-0.00488			-0.16386			239930.00000
-0.00488			-0.31465			240030.00000
-0.00488			-0.35873			240130.00000
-0.00488			-0.32342			240231.00000
-0.00488			-0.30612			240330.00000
-0.00488			-0.29215			240430.00000
-0.00488			-0.28182			240531.00000
-0.00488			-0.27254			240630.00000
-0.00488			-0.26387			240730.00000
-0.00488			-0.25583			240831.00000
9.48975			-32.73746			242028.00000
9.48975			-33.79758			242128.00000
9.48975			-34.05881			242228.00000
9.48975			-33.89193			242329.00000
9.48975			-33.64207			242428.00000
9.48975			-33.55799			242529.00000
9.48975			-33.48354			242628.00000
9.48975			-33.41844			242728.00000
9.48975			-33.36171			242829.00000
9.48975			-33.30853			242928.00000
-9.49219			24.25149			245453.00000
-9.49219			25.03005			245554.00000
-9.49219			25.22693			245655.00000
-9.49219			25.12825			245754.00000
-9.49219			25.03636			245854.00000
-9.49219			24.91621			245955.00000
-9.49219			24.86994			246054.00000
-9.49219			24.82871			246154.00000
-9.49219			24.79237			246254.00000
-9.49219			24.75952			246354.00000
-0.00488			-0.24459			247809.00000
-0.00488			-0.34405			247911.00000
-0.00488			-0.35901			248010.00000
-0.00488			-0.34053			248110.00000
-0.00488			-0.32151			248211.00000
-0.00488			-0.30698			248310.00000
-0.00488			-0.28147			248410.00000
-0.00488			-0.27249			248511.00000
-0.00488			-0.26538			248610.00000
-0.00488			-0.25769			248710.00000
9.73877			-35.22651			249926.00000
9.73877			-36.10965			250026.00000
9.73877			-36.20652			250127.00000
9.73877			-35.96321			250226.00000
9.73877			-35.81215			250326.00000
9.73877			-35.71073			250427.00000
9.73877			-35.54768			250526.00000
9.73877			-35.48140			250626.00000
9.73877			-35.42070			250727.00000
9.73877			-35.36686			250826.00000
-9.74121			25.84930			253370.00000
-9.74121			26.64180			253471.00000
-9.74121			26.82584			253571.00000
-9.74121			26.68778			253672.00000
-9.74121			26.50836			253771.00000
-9.74121			26.45292			253871.00000
-9.74121			26.40543			253972.00000
-9.74121			26.36235			254071.00000
-9.74121			26.32339			254171.00000
-9.74121			26.28831			254272.00000
-0.00488			-0.23311			255726.00000
-0.00488			-0.34257			255827.00000
-0.00488			-0.35840			255928.00000
-0.00488			-0.33790			256027.00000
-0.00488			-0.31749			256127.00000
-0.00488			-0.30200			256228.00000
-0.00488			-0.27689			256327.00000
-0.00488			-0.26744			256427.00000
-0.00488			-0.25993			256528.00000
-0.00488			-0.25203			256627.00000
9.99023			-37.15986			257861.00000
9.99023			-38.30082			257961.00000
9.99023			-38.60412			258062.00000
9.99023			-38.42669			258161.00000
9.99023			-38.13211			258261.00000
9.99023			-38.03368			258362.00000
9.99023			-37.94812			258461.00000
9.99023			-37.87264			258561.00000
9.99023			-37.80621			258662.00000
9.99023			-37.74810			258761.00000
-9.99268			27.72663			261359.00000
-9.99268			28.44112			261460.00000
-9.99268			28.58449			261561.00000
-9.99268			28.46500			261660.00000
-9.99268			28.36647			261760.00000
-9.99268			28.23262			261861.00000
-9.99268			28.17974			261960.00000
-9.99268			28.13362			262060.00000
-9.99268			28.09323			262161.00000
-9.99268			28.05633			262260.00000
-0.00488			-0.21933			263758.00000
-0.00488			-0.33269			263859.00000
-0.00488			-0.36082			263960.00000
-0.00488			-0.32427			264059.00000
-0.00488			-0.30859			264159.00000
-0.00488			-0.29476			264260.00000
-0.00488			-0.28137			264359.00000
-0.00488			-0.27252			264460.00000
-0.00488			-0.26531			264559.00000
-0.00488			-0.25819			264659.00000
10.23926			-38.57049			265893.00000
10.23926			-41.08304			265993.00000
10.23926			-40.93459			266094.00000
10.23926			-40.66230			266193.00000
10.23926			-40.51928			266293.00000
10.23926			-40.40756			266394.00000
10.23926			-40.31237			266493.00000
10.23926			-40.22913			266594.00000
10.23926			-40.15568			266693.00000
10.23926			-40.02867			266793.00000
-10.24414			28.72580			269398.00000
-10.24414			29.98222			269499.00000
-10.24414			30.31772			269598.00000
-10.24414			30.15043			269698.00000
-10.24414			30.06165			269799.00000
-10.24414			29.99285			269898.00000
-10.24414			29.93359			269998.00000
-10.24414			29.88028			270099.00000
-10.24414			29.83377			270198.00000
-10.24414			29.75518			270298.00000
-0.00488			-0.28586			271808.00000
-0.00488			-0.35614			271909.00000
-0.00488			-0.36049			272009.00000
-0.00488			-0.34141			272110.00000
-0.00488			-0.32314			272209.00000
-0.00488			-0.30721			272309.00000
-0.00488			-0.28315			272410.00000
-0.00488			-0.27405			272509.00000
-0.00488			-0.26701			272610.00000
-0.00488			-0.26023			272709.00000
10.49072			-41.76580			273955.00000
10.49072			-43.31661			274055.00000
10.49072			-43.78709			274156.00000
10.49072			-43.58802			274255.00000
10.49072			-43.22369			274355.00000
10.49072			-43.10450			274456.00000
10.49072			-43.00245			274555.00000
10.49072			-42.91337			274655.00000
10.49072			-42.83193			274756.00000
10.49072			-42.75964			274855.00000
-10.49072			30.72421			277478.00000
-10.49072			31.95329			277579.00000
-10.49072			32.36525			277679.00000
-10.49072			32.13144			277780.00000
-10.49072			32.03827			277879.00000
-10.49072			31.96120			277979.00000
-10.49072			31.89525			278080.00000
-10.49072			31.83870			278179.00000
-10.49072			31.78971			278279.00000
-10.49072			31.74384			278380.00000
-0.00488			-0.10575			279877.00000
-0.00488			-0.36416			279978.00000
-0.00488			-0.36549			280079.00000
-0.00488			-0.34242			280178.00000
-0.00488			-0.32450			280278.00000
-0.00488			-0.31080			280379.00000
-0.00488			-0.29685			280478.00000
-0.00488			-0.28589			280578.00000
-0.00488			-0.26769			280679.00000
-0.00488			-0.26241			280778.00000
10.73975			-44.63758			282048.00000
10.73975			-46.13324			282149.00000
10.73975			-46.53334			282249.00000
10.73975			-45.99125			282350.00000
10.73975			-45.83861			282449.00000
10.73975			-45.71321			282549.00000
10.73975			-45.60513			282649.00000
10.73975			-45.50951			282749.00000
10.73975			-45.42406			282850.00000
10.73975			-45.34885			282949.00000
-10.74219			33.69982			285609.00000
-10.74219			34.33357			285710.00000
-10.74219			34.33387			285809.00000
-10.74219			34.10128			285909.00000
-10.74219			33.98018			286010.00000
-10.74219			33.89595			286109.00000
-10.74219			33.82404			286209.00000
-10.74219			33.70660			286310.00000
-10.74219			33.65681			286409.00000
-10.74219			33.61232			286509.00000
-0.00488			-0.20199			288019.00000
-0.00488			-0.33269			288120.00000
-0.00488			-0.36879			288220.00000
-0.00488			-0.35386			288321.00000
-0.00488			-0.31477			288420.00000
-0.00488			-0.30110			288520.00000
-0.00488			-0.28805			288621.00000
-0.00488			-0.27747			288720.00000
-0.00488			-0.26875			288820.00000
-0.00488			-0.26111			288921.00000
10.98877			-48.09822			290197.00000
10.98877			-49.33464			290297.00000
10.98877			-49.49392			290397.00000
10.98877			-49.18345			290498.00000
10.98877			-48.96354			290597.00000
10.98877			-48.80414			290697.00000
10.98877			-48.55339			290798.00000
10.98877			-48.45215			290897.00000
10.98877			-48.36028			290997.00000
10.98877			-48.27801			291097.00000
-10.98877			34.17517			293775.00000
-10.98877			36.49923			293876.00000
-10.98877			36.47354			293977.00000
-10.98877			36.27500			294077.00000
-10.98877			36.15473			294176.00000
-10.98877			36.06123			294276.00000
-10.98877			35.98165			294377.00000
-10.98877			35.91338			294476.00000
-10.98877			35.79952			294576.00000
-10.98877			35.75081			294677.00000
-0.00488			-0.20835			296205.00000
-0.00488			-0.33717			296305.00000
-0.00488			-0.37336			296405.00000
-0.00488			-0.33729			296506.00000
-0.00488			-0.32055			296605.00000
-0.00488			-0.30492			296704.00000
-0.00488			-0.29160			296806.00000
-0.00488			-0.27993			296905.00000
-0.00488			-0.27272			297005.00000
-0.00488			-0.26445			297106.00000
10.99121			-47.46967			298382.00000
10.99121			-48.82940			298483.00000
10.99121			-49.09963			298583.00000
10.99121			-48.82098			298684.00000
10.99121			-48.59959			298783.00000
10.99121			-48.31456			298883.00000
10.99121			-48.20198			298984.00000
10.99121			-48.10347			299083.00000
10.99121			-48.01520			299183.00000
10.99121			-47.93733			299284.00000
-10.99121			35.44959			301960.00000
-10.99121			36.21350			302062.00000
-10.99121			36.25580			302161.00000
-10.99121			36.05934			302261.00000
-10.99121			35.93590			302362.00000
-10.99121			35.84341			302461.00000
-10.99121			35.76479			302562.00000
-10.99121			35.63725			302661.00000
-10.99121			35.58344			302761.00000
-10.99121			35.53578			302862.00000
-0.00732			-0.18892			304389.00000
-0.00732			-0.32885			304490.00000
-0.00732			-0.36956			304589.00000
-0.00732			-0.33767			304689.00000
-0.00732			-0.31726			304790.00000
-0.00732			-0.30117			304889.00000
-0.00732			-0.28775			304989.00000
-0.00732			-0.27684			305090.00000
-0.00732			-0.26835			305189.00000
-0.00732			-0.26060			305289.00000
10.74219			-44.05671			306566.00000
10.74219			-45.27699			306668.00000
10.74219			-45.53161			306767.00000
10.74219			-45.24049			306867.00000
10.74219			-44.88624			306968.00000
10.74219			-44.77284			307067.00000
10.74219			-44.67423			307167.00000
10.74219			-44.58862			307268.00000
10.74219			-44.51389			307367.00000
10.74219			-44.44593			307468.00000
-10.74219			31.68660			310126.00000
-10.74219			33.70105			310227.00000
-10.74219			33.65478			310328.00000
-10.74219			33.44311			310427.00000
-10.74219			33.33596			310527.00000
-10.74219			33.25641			310628.00000
-10.74219			33.18867			310727.00000
-10.74219			33.12878			310827.00000
-10.74219			33.03158			310928.00000
-10.74219			32.99023			311027.00000
-0.00488			-0.23527			312543.00000
-0.00488			-0.34541			312645.00000
-0.00488			-0.36926			312744.00000
-0.00488			-0.35001			312845.00000
-0.00488			-0.31050			312944.00000
-0.00488			-0.29720			313044.00000
-0.00488			-0.28453			313145.00000
-0.00488			-0.27300			313244.00000
-0.00488			-0.26445			313344.00000
-0.00488			-0.25769			313445.00000
10.48828			-39.70227			314690.00000
10.48828			-42.35575			314791.00000
10.48828			-42.30106			314892.00000
10.48828			-42.06785			314991.00000
10.48828			-41.92066			315091.00000
10.48828			-41.80413			315192.00000
10.48828			-41.70531			315291.00000
10.48828			-41.62055			315391.00000
10.48828			-41.54547			315492.00000
10.48828			-41.41907			315591.00000
-10.49072			29.29754			318214.00000
-10.49072			31.40944			318316.00000
-10.49072			31.42894			318415.00000
-10.49072			31.27954			318515.00000
-10.49072			31.18081			318616.00000
-10.49072			31.10525			318715.00000
-10.49072			31.04046			318815.00000
-10.49072			30.98408			318916.00000
-10.49072			30.89206			319016.00000
-10.49072			30.85323			319116.00000
-0.00488			-0.24912			320619.00000
-0.00488			-0.34471			320719.00000
-0.00488			-0.35918			320819.00000
-0.00488			-0.33905			320920.00000
-0.00488			-0.31902			321019.00000
-0.00488			-0.30291			321119.00000
-0.00488			-0.27626			321219.00000
-0.00488			-0.26581			321319.00000
-0.00488			-0.25716			321420.00000
-0.00488			-0.24927			321519.00000
10.23926			-37.78193			322753.00000
10.23926			-39.16486			322854.00000
10.23926			-39.53088			322954.00000
10.23926			-39.07827			323055.00000
10.23926			-38.95684			323154.00000
10.23926			-38.85696			323255.00000
10.23926			-38.77079			323354.00000
10.23926			-38.69662			323454.00000
10.23926			-38.63164			323555.00000
10.23926			-38.57250			323654.00000
-10.24170			27.99706			326271.00000
-10.24170			29.05776			326372.00000
-10.24170			29.37486			326471.00000
-10.24170			29.08752			326571.00000
-10.24170			29.00824			326672.00000
-10.24170			28.94226			326771.00000
-10.24170			28.88679			326871.00000
-10.24170			28.83808			326972.00000
-10.24170			28.79509			327071.00000
-10.24170			28.75692			327171.00000
-0.00488			-0.14986			328676.00000
-0.00488			-0.35074			328776.00000
-0.00488			-0.34571			328876.00000
-0.00488			-0.32410			328977.00000
-0.00488			-0.30416			329076.00000
-0.00488			-0.29011			329176.00000
-0.00488			-0.27913			329277.00000
-0.00488			-0.26804			329376.00000
-0.00488			-0.24784			329476.00000
-0.00488			-0.24205			329577.00000
9.99268			-35.96693			330810.00000
9.99268			-36.76761			330911.00000
9.99268			-36.86184			331011.00000
9.99268			-36.65073			331112.00000
9.99268			-36.50947			331211.00000
9.99268			-36.40624			331311.00000
9.99268			-36.24296			331412.00000
9.99268			-36.17777			331511.00000
9.99268			-36.11943			331611.00000
9.99268			-36.06569			331712.00000
-9.99268			26.88569			334310.00000
-9.99268			27.37200			334411.00000
-9.99268			27.39251			334511.00000
-9.99268			27.27061			334612.00000
-9.99268			27.18595			334711.00000
-9.99268			27.11977			334811.00000
-9.99268			27.06513			334912.00000
-9.99268			27.01712			335011.00000
-9.99268			26.93807			335111.00000
-9.99268			26.90444			335212.00000
-0.00488			-0.26176			336709.00000
-0.00488			-0.33704			336809.00000
-0.00488			-0.34506			336910.00000
-0.00488			-0.32503			337009.00000
-0.00488			-0.30655			337109.00000
-0.00488			-0.29031			337210.00000
-0.00488			-0.26500			337309.00000
-0.00488			-0.25513			337409.00000
-0.00488			-0.24756			337510.00000
-0.00488			-0.24120			337609.00000
9.74121			-33.36795			338824.00000
9.74121			-34.28142			338926.00000
9.74121			-34.42062			339025.00000
9.74121			-34.18878			339125.00000
9.74121			-34.03837			339226.00000
9.74121			-33.85493			339325.00000
9.74121			-33.78350			339426.00000
9.74121			-33.72144			339525.00000
9.74121			-33.66557			339625.00000
9.74121			-33.61610			339726.00000
-9.74365			24.60403			342269.00000
-9.74365			25.40378			342370.00000
-9.74365			25.61614			342469.00000
-9.74365			25.48745			342569.00000
-9.74365			25.30646			342670.00000
-9.74365			25.25134			342770.00000
-9.74365			25.20473			342869.00000
-9.74365			25.16304			342970.00000
-9.74365			25.12591			343069.00000
-9.74365			25.09308			343169.00000
-0.00488			-0.22031			344625.00000
-0.00488			-0.32751			344726.00000
-0.00488			-0.34704			344825.00000
-0.00488			-0.32714			344925.00000
-0.00488			-0.30628			345026.00000
-0.00488			-0.28966			345125.00000
-0.00488			-0.26415			345225.00000
-0.00488			-0.25407			345326.00000
-0.00488			-0.24645			345425.00000
-0.00488			-0.23964			345525.00000
9.49219			-31.33578			346723.00000
9.49219			-32.09971			346824.00000
9.49219			-32.17345			346924.00000
9.49219			-31.98753			347025.00000
9.49219			-31.86452			347124.00000
9.49219			-31.77267			347224.00000
9.49219			-31.62941			347325.00000
9.49219			-31.57187			347424.00000
9.49219			-31.51839			347524.00000
9.49219			-31.47304			347625.00000
-9.49219			23.30428			350150.00000
-9.49219			23.87042			350250.00000
-9.49219			23.94753			350351.00000
-9.49219			23.84018			350450.00000
-9.49219			23.76108			350550.00000
-9.49219			23.70156			350651.00000
-9.49219			23.65081			350750.00000
-9.49219			23.57111			350850.00000
-9.49219			23.53891			350951.00000
-9.49219			23.50996			351050.00000
-0.00488			-0.10150			352505.00000
-0.00488			-0.33294			352605.00000
-0.00488			-0.33128			352706.00000
-0.00488			-0.30881			352805.00000
-0.00488			-0.29067			352905.00000
-0.00488			-0.27574			353005.00000
-0.00488			-0.26435			353105.00000
-0.00488			-0.25407			353205.00000
-0.00488			-0.23605			353306.00000
-0.00488			-0.22811			353405.00000
9.24072			-28.59420			354597.00000
9.24072			-29.68798			354697.00000
9.24072			-30.06380			354798.00000
9.24072			-29.78326			354897.00000
9.24072			-29.68747			354997.00000
9.24072			-29.61051			355097.00000
9.24072			-29.54441			355197.00000
9.24072			-29.48697			355298.00000
9.24072			-29.43565			355397.00000
9.24072			-29.39053			355497.00000
-9.24072			21.59686			357998.00000
-9.24072			22.23119			358099.00000
-9.24072			22.39172			358200.00000
-9.24072			22.28384			358299.00000
-9.24072			22.19640			358399.00000
-9.24072			22.08950			358500.00000
-9.24072			22.04893			358599.00000
-9.24072			22.01440			358699.00000
-9.24072			21.98222			358800.00000
-9.24072			21.95314			358899.00000
-0.00488			-0.07883			360336.00000
-0.00488			-0.32749			360437.00000
-0.00488			-0.32490			360537.00000
-0.00488			-0.30409			360638.00000
-0.00488			-0.28471			360737.00000
-0.00488			-0.27076			360837.00000
-0.00488			-0.25764			360938.00000
-0.00488			-0.24542			361037.00000
-0.00488			-0.22816			361137.00000
-0.00488			-0.22139			361238.00000
8.99170			-26.96613			362398.00000
8.99170			-27.91742			362498.00000
8.99170			-28.14956			362599.00000
8.99170			-28.00720			362698.00000
8.99170			-27.87921			362798.00000
8.99170			-27.72129			362899.00000
8.99170			-27.65953			362998.00000
8.99170			-27.60393			363098.00000
8.99170			-27.55741			363199.00000
8.99170			-27.51599			363298.00000
-8.99170			19.57318			365774.00000
-8.99170			20.56013			365875.00000
-8.99170			20.94898			365976.00000
-8.99170			20.86153			366075.00000
-8.99170			20.79839			366175.00000
-8.99170			20.74812			366276.00000
-8.99170			20.70592			366375.00000
-8.99170			20.66857			366476.00000
-8.99170			20.63599			366575.00000
-8.99170			20.58326			366675.00000
-0.00488			-0.19995			368107.00000
-0.00488			-0.30296			368207.00000
-0.00488			-0.32279			368307.00000
-0.00488			-0.30404			368408.00000
-0.00488			-0.28370			368507.00000
-0.00488			-0.25573			368607.00000
-0.00488			-0.24568			368707.00000
-0.00488			-0.23592			368807.00000
-0.00488			-0.22665			368908.00000
-0.00488			-0.22001			369007.00000
8.74268			-24.90368			370168.00000
8.74268			-25.95942			370268.00000
8.74268			-26.23169			370369.00000
8.74268			-26.08291			370468.00000
8.74268			-25.99590			370568.00000
8.74268			-25.92622			370669.00000
8.74268			-25.86658			370768.00000
8.74268			-25.81331			370868.00000
8.74268			-25.76842			370969.00000
8.74268			-25.69071			371068.00000
-8.74512			18.46388			373514.00000
-8.74512			19.60616			373615.00000
-8.74512			19.58643			373714.00000
-8.74512			19.49406			373815.00000
-8.74512			19.43419			373914.00000
-8.74512			19.38759			374014.00000
-8.74512			19.34880			374115.00000
-8.74512			19.31424			374214.00000
-8.74512			19.28438			374314.00000
-8.74512			19.23457			374415.00000
-0.00488			-0.21765			375826.00000
-0.00488			-0.30251			375927.00000
-0.00488			-0.31125			376026.00000
-0.00488			-0.29016			376128.00000
-0.00488			-0.27141			376227.00000
-0.00488			-0.25575			376327.00000
-0.00488			-0.23348			376428.00000
-0.00488			-0.22423			376527.00000
-0.00488			-0.21652			376627.00000
-0.00488			-0.20903			376728.00000
8.49121			-23.77127			377863.00000
8.49121			-24.49870			377964.00000
8.49121			-24.63114			378063.00000
8.49121			-24.50300			378163.00000
8.49121			-24.39909			378264.00000
8.49121			-24.26301			378363.00000
8.49121			-24.21028			378463.00000
8.49121			-24.16353			378564.00000
8.49121			-24.12100			378663.00000
8.49121			-24.08282			378764.00000
-8.49121			17.12571			381167.00000
-8.49121			18.34667			381267.00000
-8.49121			18.34200			381368.00000
-8.49121			18.26257			381467.00000
-8.49121			18.20667			381567.00000
-8.49121			18.16389			381668.00000
-8.49121			18.12621			381767.00000
-8.49121			18.09376			381867.00000
-8.49121			18.03909			381968.00000
-8.49121			18.01635			382067.00000
-0.00488			-0.23112			383461.00000
-0.00488			-0.30592			383562.00000
-0.00488			-0.30849			383662.00000
-0.00488			-0.28672			383763.00000
-0.00488			-0.26732			383862.00000
-0.00488			-0.25339			383962.00000
-0.00488			-0.24135			384063.00000
-0.00488			-0.23039			384162.00000
-0.00488			-0.21375			384262.00000
-0.00488			-0.20619			384363.00000
8.24219			-22.49720			385498.00000
8.24219			-22.97967			385599.00000
8.24219			-23.01634			385698.00000
8.24219			-22.88476			385798.00000
8.24219			-22.79397			385899.00000
8.24219			-22.72774			385998.00000
8.24219			-22.67262			386098.00000
8.24219			-22.58238			386199.00000
8.24219			-22.54569			386298.00000
8.24219			-22.51193			386398.00000
-8.24219			16.33703			388802.00000
-8.24219			16.97410			388902.00000
-8.24219			17.14544			389002.00000
-8.24219			17.06773			389103.00000
-8.24219			17.01881			389202.00000
-8.24219			16.97910			389303.00000
-8.24219			16.94426			389402.00000
-8.24219			16.91483			389502.00000
-8.24219			16.88979			389603.00000
-8.24219			16.86604			389702.00000
-0.00488			-0.10188			391089.00000
-0.00488			-0.25183			391191.00000
-0.00488			-0.29320			391290.00000
-0.00488			-0.27121			391390.00000
-0.00488			-0.25440			391491.00000
-0.00488			-0.24190			391590.00000
-0.00488			-0.22936			391690.00000
-0.00488			-0.21953			391790.00000
-0.00488			-0.21109			391890.00000
-0.00488			-0.20347			391991.00000
7.99072			-20.51201			393095.00000
7.99072			-21.33415			393197.00000
7.99072			-21.57972			393296.00000
7.99072			-21.50037			393396.00000
7.99072			-21.32815			393497.00000
7.99072			-21.27104			393596.00000
7.99072			-21.22248			393697.00000
7.99072			-21.17900			393796.00000
7.99072			-21.14029			393896.00000
7.99072			-21.10548			393997.00000
-7.99072			15.32394			396345.00000
-7.99072			15.91966			396445.00000
-7.99072			16.09812			396545.00000
-7.99072			16.05205			396646.00000
-7.99072			15.94512			396745.00000
-7.99072			15.90900			396845.00000
-7.99072			15.87718			396946.00000
-7.99072			15.84946			397045.00000
-7.99072			15.82442			397145.00000
-7.99072			15.80168			397246.00000
-0.00488			-0.17155			398614.00000
-0.00488			-0.28194			398715.00000
-0.00488			-0.30303			398815.00000
-0.00488			-0.28471			398916.00000
-0.00488			-0.26588			399015.00000
-0.00488			-0.23874			399116.00000
-0.00488			-0.22883			399215.00000
-0.00488			-0.21943			399315.00000
-0.00488			-0.21104			399416.00000
-0.00488			-0.20347			399515.00000
7.73926			-19.70913			400609.00000
7.73926			-20.14650			400710.00000
7.73926			-20.15228			400810.00000
7.73926			-20.03608			400911.00000
7.73926			-19.96158			401010.00000
7.73926			-19.90322			401110.00000
7.73926			-19.85292			401211.00000
7.73926			-19.81057			401310.00000
7.73926			-19.74054			401410.00000
7.73926			-19.71066			401511.00000
-7.74170			14.25022			403834.00000
-7.74170			14.85904			403934.00000
-7.74170			15.06512			404035.00000
-7.74170			14.96360			404134.00000
-7.74170			14.91971			404234.00000
-7.74170			14.88440			404335.00000
-7.74170			14.85371			404434.00000
-7.74170			14.82875			404535.00000
-7.74170			14.80522			404634.00000
-7.74170			14.78406			404734.00000
-0.00488			-0.16942			406086.00000
-0.00488			-0.28074			406186.00000
-0.00488			-0.30253			406287.00000
-0.00488			-0.28358			406386.00000
-0.00488			-0.26435			406486.00000
-0.00488			-0.23806			406587.00000
-0.00488			-0.22604			406686.00000
-0.00488			-0.21687			406786.00000
-0.00488			-0.20925			406887.00000
-0.00488			-0.20194			406986.00000
7.49023			-17.69254			408067.00000
7.49023			-18.56679			408169.00000
7.49023			-18.87449			408268.00000
7.49023			-18.78049			408368.00000
7.49023			-18.71433			408469.00000
7.49023			-18.66037			408568.00000
7.49023			-18.61538			408668.00000
7.49023			-18.57687			408769.00000
7.49023			-18.54181			408868.00000
7.49023			-18.48198			408968.00000
-7.49268			13.62461			411268.00000
-7.49268			14.02433			411370.00000
-7.49268			14.10911			411469.00000
-7.49268			14.05643			411569.00000
-7.49268			14.00651			411670.00000
-7.49268			13.96933			411769.00000
-7.49268			13.91087			411869.00000
-7.49268			13.88692			411970.00000
-7.49268			13.86615			412069.00000
-7.49268			13.84683			412169.00000
-0.00488			-0.07232			413509.00000
-0.00488			-0.23653			413610.00000
-0.00488			-0.28484			413711.00000
-0.00488			-0.26417			413810.00000
-0.00488			-0.24947			413910.00000
-0.00488			-0.23738			414011.00000
-0.00488			-0.22474			414110.00000
-0.00488			-0.21448			414210.00000
-0.00488			-0.20561			414311.00000
-0.00488			-0.19837			414410.00000
7.23633			-17.24353			415479.00000
7.23633			-17.64099			415580.00000
7.23633			-17.65700			415681.00000
7.23633			-17.55136			415780.00000
7.23633			-17.48191			415880.00000
7.23633			-17.42996			415981.00000
7.23633			-17.38637			416080.00000
7.23633			-17.31763			416180.00000
7.23633			-17.28737			416281.00000
7.23633			-17.26062			416380.00000
-7.24121			12.75036			418662.00000
-7.24121			13.12067			418763.00000
-7.24121			13.19608			418863.00000
-7.24121			13.13769			418964.00000
-7.24121			13.08875			419063.00000
-7.24121			13.02416			419163.00000
-7.24121			12.99837			419264.00000
-7.24121			12.97670			419363.00000
-7.24121			12.95707			419463.00000
-7.24121			12.93900			419564.00000
-0.00488			-0.10288			420878.00000
-0.00488			-0.24942			420979.00000
-0.00488			-0.28996			421079.00000
-0.00488			-0.27712			421180.00000
-0.00488			-0.24100			421279.00000
-0.00488			-0.22883			421379.00000
-0.00488			-0.21966			421480.00000
-0.00488			-0.21001			421579.00000
-0.00488			-0.20141			421679.00000
-0.00488			-0.19370			421780.00000
6.99219			-15.61403			422829.00000
6.99219			-16.32206			422931.00000
6.99219			-16.55687			423030.00000
6.99219			-16.43323			423130.00000
6.99219			-16.37514			423231.00000
6.99219			-16.32957			423330.00000
6.99219			-16.29109			423430.00000
6.99219			-16.25661			423531.00000
6.99219			-16.22715			423630.00000
6.99219			-16.19952			423730.00000
-6.98975			11.84103			425970.00000
-6.98975			12.25382			426070.00000
-6.98975			12.35805			426171.00000
-6.98975			12.31399			426270.00000
-6.98975			12.26777			426370.00000
-6.98975			12.20498			426471.00000
-6.98975			12.17990			426570.00000
-6.98975			12.15750			426670.00000
-6.98975			12.13981			426771.00000
-6.98975			12.12324			426870.00000
-0.00488			-0.09569			428185.00000
-0.00488			-0.23906			428285.00000
-0.00488			-0.28016			428386.00000
-0.00488			-0.24877			428485.00000
-0.00488			-0.23296			428585.00000
-0.00488			-0.22303			428686.00000
-0.00488			-0.21403			428785.00000
-0.00488			-0.20365			428885.00000
-0.00488			-0.19593			428986.00000
-0.00488			-0.18796			429085.00000
6.74072			-14.66108			430118.00000
6.74072			-15.29454			430218.00000
6.74072			-15.47830			430319.00000
6.74072			-15.33241			430418.00000
6.74072			-15.28197			430519.00000
6.74072			-15.24070			430618.00000
6.74072			-15.20383			430718.00000
6.74072			-15.17220			430819.00000
6.74072			-15.14503			430918.00000
6.74072			-15.11977			431018.00000
-6.74316			10.78822			433215.00000
-6.74316			11.34375			433315.00000
-6.74316			11.54023			433415.00000
-6.74316			11.48675			433516.00000
-6.74316			11.45121			433615.00000
-6.74316			11.42114			433715.00000
-6.74316			11.39749			433816.00000
-6.74316			11.37671			433915.00000
-6.74316			11.35720			434015.00000
-6.74316			11.32563			434116.00000
-0.00488			-0.03683			435406.00000
-0.00488			-0.21348			435506.00000
-0.00488			-0.26654			435607.00000
-0.00488			-0.24620			435706.00000
-0.00488			-0.22984			435806.00000
-0.00488			-0.21863			435907.00000
-0.00488			-0.20968			436006.00000
-0.00488			-0.19975			436106.00000
-0.00488			-0.19081			436207.00000
-0.00488			-0.18354			436306.00000
6.49170			-13.73984			437333.00000
6.49170			-14.29949			437434.00000
6.49170			-14.45681			437533.00000
6.49170			-14.33197			437633.00000
6.49170			-14.28481			437734.00000
6.49170			-14.24563			437833.00000
6.49170			-14.21051			437933.00000
6.49170			-14.18188			438034.00000
6.49170			-14.15740			438133.00000
6.49170			-14.13413			438233.00000
-6.48926			10.27486			440411.00000
-6.48926			10.68755			440512.00000
-6.48926			10.81047			440611.00000
-6.48926			10.74087			440711.00000
-6.48926			10.70864			440812.00000
-6.48926			10.68336			440911.00000
-6.48926			10.66089			441011.00000
-6.48926			10.64161			441112.00000
-6.48926			10.62396			441211.00000
-6.48926			10.60881			441311.00000
-0.00488			-0.10530			442589.00000
-0.00488			-0.23291			442691.00000
-0.00488			-0.26347			442790.00000
-0.00488			-0.25068			442890.00000
-0.00488			-0.23205			442991.00000
-0.00488			-0.20684			443090.00000
-0.00488			-0.19769			443191.00000
-0.00488			-0.18839			443290.00000
-0.00488			-0.18007			443390.00000
-0.00488			-0.17384			443491.00000
6.24268			-12.36013			444486.00000
6.24268			-13.47446			444586.00000
6.24268			-13.46850			444687.00000
6.24268			-13.38845			444786.00000
6.24268			-13.33707			444886.00000
6.24268			-13.29608			444987.00000
6.24268			-13.26252			445086.00000
6.24268			-13.23490			445186.00000
6.24268			-13.18493			445287.00000
6.24268			-13.16480			445386.00000
-6.24512			9.52976			447534.00000
-6.24512			9.98066			447635.00000
-6.24512			10.12109			447734.00000
-6.24512			10.04850			447834.00000
-6.24512			10.01741			447935.00000
-6.24512			9.99315			448034.00000
-6.24512			9.97088			448134.00000
-6.24512			9.95115			448235.00000
-6.24512			9.93451			448334.00000
-6.24512			9.91948			448434.00000
-0.00488			-0.14021			449682.00000
-0.00488			-0.24432			449783.00000
-0.00488			-0.25681			449882.00000
-0.00488			-0.23698			449984.00000
-0.00488			-0.21825			450083.00000
-0.00488			-0.20561			450183.00000
-0.00488			-0.19596			450284.00000
-0.00488			-0.17846			450383.00000
-0.00488			-0.17045			450483.00000
-0.00488			-0.16396			450584.00000
5.99121			-11.95437			451561.00000
5.99121			-12.45368			451661.00000
5.99121			-12.56849			451761.00000
5.99121			-12.50721			451862.00000
5.99121			-12.44948			451961.00000
5.99121			-12.37483			452061.00000
5.99121			-12.34497			452162.00000
5.99121			-12.31875			452261.00000
5.99121			-12.29638			452361.00000
5.99121			-12.27572			452462.00000
-5.99121			8.88196			454577.00000
-5.99121			9.31732			454679.00000
-5.99121			9.43990			454778.00000
-5.99121			9.39923			454878.00000
-5.99121			9.36915			454979.00000
-5.99121			9.34451			455078.00000
-5.99121			9.32458			455178.00000
-5.99121			9.30699			455279.00000
-5.99121			9.29040			455378.00000
-5.99121			9.27627			455479.00000
-0.00488			-0.13340			456720.00000
-0.00488			-0.23037			456820.00000
-0.00488			-0.24057			456920.00000
-0.00488			-0.22313			457021.00000
-0.00488			-0.20727			457120.00000
-0.00488			-0.19334			457220.00000
-0.00488			-0.18309			457321.00000
-0.00488			-0.16597			457420.00000
-0.00488			-0.15876			457520.00000
-0.00488			-0.15315			457621.00000
5.73975			-11.18850			458598.00000
5.73975			-11.60017			458699.00000
5.73975			-11.68826			458799.00000
5.73975			-11.62518			458900.00000
5.73975			-11.53444			458999.00000
5.73975			-11.50237			459099.00000
5.73975			-11.47522			459200.00000
5.73975			-11.45112			459300.00000
5.73975			-11.43113			459399.00000
5.73975			-11.41221			459500.00000
-5.74463			8.54409			461567.00000
-5.74463			8.79124			461668.00000
-5.74463			8.83274			461767.00000
-5.74463			8.79074			461867.00000
-5.74463			8.75822			461968.00000
-5.74463			8.73208			462067.00000
-5.74463			8.69304			462167.00000
-5.74463			8.67713			462268.00000
-5.74463			8.66368			462367.00000
-5.74463			8.65134			462467.00000
-0.00732			-0.06410			463697.00000
-0.00732			-0.20204			463797.00000
-0.00732			-0.23638			463898.00000
-0.00732			-0.22456			463997.00000
-0.00732			-0.20709			464098.00000
-0.00732			-0.18269			464197.00000
-0.00732			-0.17351			464297.00000
-0.00732			-0.16602			464398.00000
-0.00732			-0.16019			464497.00000
-0.00732			-0.15272			464597.00000
5.49316			-10.31718			465544.00000
5.49316			-10.76239			465646.00000
5.49316			-10.87459			465745.00000
5.49316			-10.82991			465845.00000
5.49316			-10.74555			465946.00000
5.49316			-10.71418			466045.00000
5.49316			-10.68920			466146.00000
5.49316			-10.66736			466245.00000
5.49316			-10.64634			466345.00000
5.49316			-10.62845			466446.00000
-5.49316			7.63051			468482.00000
-5.49316			8.23654			468584.00000
-5.49316			8.23812			468683.00000
-5.49316			8.20158			468783.00000
-5.49316			8.17290			468884.00000
-5.49316			8.15028			468983.00000
-5.49316			8.13190			469083.00000
-5.49316			8.11579			469184.00000
-5.49316			8.10109			469283.00000
-5.49316			8.07628			469383.00000
-0.00488			0.05534			470576.00000
-0.00488			-0.15753			470678.00000
-0.00488			-0.23087			470777.00000
-0.00488			-0.20898			470877.00000
-0.00488			-0.19448			470978.00000
-0.00488			-0.18261			471077.00000
-0.00488			-0.17321			471177.00000
-0.00488			-0.16667			471278.00000
-0.00488			-0.15926			471377.00000
-0.00488			-0.15252			471477.00000
5.23926			-9.52650			472406.00000
5.23926			-9.97378			472508.00000
5.23926			-10.08691			472608.00000
5.23926			-10.03202			472707.00000
5.23926			-9.94794			472808.00000
5.23926			-9.91981			472907.00000
5.23926			-9.89518			473007.00000
5.23926			-9.87565			473108.00000
5.23926			-9.85648			473207.00000
5.23926			-9.83850			473307.00000
-5.24170			7.29664			475308.00000
-5.24170			7.61339			475410.00000
-5.24170			7.69739			475509.00000
-5.24170			7.66773			475609.00000
-5.24170			7.61123			475710.00000
-5.24170			7.59110			475809.00000
-5.24170			7.57390			475909.00000
-5.24170			7.55970			476010.00000
-5.24170			7.54663			476109.00000
-5.24170			7.53482			476209.00000
-0.00732			-0.07752			477390.00000
-0.00732			-0.20325			477491.00000
-0.00732			-0.22660			477592.00000
-0.00732			-0.21127			477691.00000
-0.00732			-0.19576			477791.00000
-0.00732			-0.18261			477892.00000
-0.00732			-0.17256			477991.00000
-0.00732			-0.15810			478092.00000
-0.00732			-0.15089			478191.00000
-0.00732			-0.14483			478291.00000
4.99268			-8.63909			479195.00000
4.99268			-9.17192			479297.00000
4.99268			-9.34641			479396.00000
4.99268			-9.27407			479496.00000
4.99268			-9.23821			479597.00000
4.99268			-9.21259			479696.00000
4.99268			-9.19097			479796.00000
4.99268			-9.16946			479897.00000
4.99268			-9.15106			479996.00000
4.99268			-9.13505			480097.00000
-4.99268			6.50557			482036.00000
-4.99268			7.15913			482137.00000
-4.99268			7.17109			482238.00000
-4.99268			7.13794			482337.00000
-4.99268			7.11315			482437.00000
-4.99268			7.09423			482538.00000
-4.99268			7.07666			482637.00000
-4.99268			7.06070			482737.00000
-4.99268			7.03483			482838.00000
-4.99268			7.02508			482937.00000
-0.00732			0.00354			484099.00000
-0.00732			-0.16434			484201.00000
-0.00732			-0.21076			484300.00000
-0.00732			-0.19945			484400.00000
-0.00732			-0.16919			484501.00000
-0.00732			-0.15921			484600.00000
-0.00732			-0.15031			484700.00000
-0.00732			-0.14365			484800.00000
-0.00732			-0.13787			484900.00000
-0.00732			-0.13204			485000.00000
4.74121			-7.88803			485893.00000
4.74121			-8.43283			485994.00000
4.74121			-8.60925			486093.00000
4.74121			-8.55544			486193.00000
4.74121			-8.52125			486294.00000
4.74121			-8.49622			486393.00000
4.74121			-8.47407			486493.00000
4.74121			-8.45462			486594.00000
4.74121			-8.43828			486693.00000
4.74121			-8.40882			486793.00000
-4.74121			6.47470			488734.00000
-4.74121			6.66022			488835.00000
-4.74121			6.67890			488936.00000
-4.74121			6.64501			489035.00000
-4.74121			6.61958			489135.00000
-4.74121			6.59907			489236.00000
-4.74121			6.58323			489335.00000
-4.74121			6.55490			489435.00000
-4.74121			6.54412			489536.00000
-4.74121			6.53445			489635.00000
-0.00488			0.00716			490785.00000
-0.00488			-0.15808			490885.00000
-0.00488			-0.20073			490987.00000
-0.00488			-0.18897			491086.00000
-0.00488			-0.16160			491186.00000
-0.00488			-0.14986			491287.00000
-0.00488			-0.14237			491386.00000
-0.00488			-0.13568			491486.00000
-0.00488			-0.12932			491587.00000
-0.00488			-0.12460			491686.00000
4.49463			-7.40013			492548.00000
4.49463			-7.85188			492649.00000
4.49463			-7.98281			492748.00000
4.49463			-7.95506			492848.00000
4.49463			-7.88380			492949.00000
4.49463			-7.86088			493048.00000
4.49463			-7.84075			493148.00000
4.49463			-7.82353			493249.00000
4.49463			-7.80772			493348.00000
4.49463			-7.79400			493448.00000
-4.49219			5.61312			495309.00000
-4.49219			6.20415			495410.00000
-4.49219			6.21010			495511.00000
-4.49219			6.17909			495610.00000
-4.49219			6.15636			495710.00000
-4.49219			6.13809			495811.00000
-4.49219			6.12198			495910.00000
-4.49219			6.10833			496010.00000
-4.49219			6.09609			496110.00000
-4.49219			6.07578			496210.00000
-0.00732			0.19170			497330.00000
-0.00732			-0.17952			497431.00000
-0.00732			-0.18922			497530.00000
-0.00732			-0.17102			497630.00000
-0.00732			-0.15813			497731.00000
-0.00732			-0.14991			497830.00000
-0.00732			-0.13928			497930.00000
-0.00732			-0.13196			498030.00000
-0.00732			-0.12744			498130.00000
-0.00732			-0.11625			498231.00000
4.24072			-6.64970			499086.00000
4.24072			-7.14800			499187.00000
4.24072			-7.32354			499287.00000
4.24072			-7.27803			499388.00000
4.24072			-7.24809			499487.00000
4.24072			-7.22494			499587.00000
4.24072			-7.20687			499688.00000
4.24072			-7.19108			499787.00000
4.24072			-7.17550			499887.00000
4.24072			-7.14954			499988.00000
-4.24072			5.54694			501841.00000
-4.24072			5.73787			501943.00000
-4.24072			5.76509			502042.00000
-4.24072			5.73445			502142.00000
-4.24072			5.71049			502243.00000
-4.24072			5.69252			502342.00000
-4.24072			5.66480			502442.00000
-4.24072			5.65324			502543.00000
-4.24072			5.64210			502642.00000
-4.24072			5.63285			502742.00000
-0.00732			-0.04462			503856.00000
-0.00732			-0.15896			503957.00000
-0.00732			-0.17489			504056.00000
-0.00732			-0.15883			504156.00000
-0.00732			-0.14607			504257.00000
-0.00732			-0.13609			504356.00000
-0.00732			-0.12716			504456.00000
-0.00732			-0.11482			504557.00000
-0.00732			-0.10922			504656.00000
-0.00732			-0.10399			504756.00000
3.99170			-6.10100			505582.00000
3.99170			-6.57291			505683.00000
3.99170			-6.73611			505784.00000
3.99170			-6.68816			505883.00000
3.99170			-6.66174			505983.00000
3.99170			-6.64040			506084.00000
3.99170			-6.62333			506183.00000
3.99170			-6.60805			506283.00000
3.99170			-6.59458			506384.00000
3.99170			-6.58221			506483.00000
-3.99170			5.02873			508283.00000
-3.99170			5.28534			508383.00000
-3.99170			5.35393			508484.00000
-3.99170			5.33427			508584.00000
-3.99170			5.30969			508684.00000
-3.99170			5.27669			508783.00000
-3.99170			5.26254			508883.00000
-3.99170			5.25186			508984.00000
-3.99170			5.24148			509083.00000
-3.99170			5.23052			509183.00000
-0.00732			0.24494			510260.00000
-0.00732			-0.15288			510361.00000
-0.00732			-0.16851			510460.00000
-0.00732			-0.15358			510561.00000
-0.00732			-0.14053			510660.00000
-0.00732			-0.13010			510760.00000
-0.00732			-0.12141			510861.00000
-0.00732			-0.11610			510960.00000
-0.00732			-0.11163			511060.00000
-0.00732			-0.10002			511161.00000
3.74268			-5.80657			511973.00000
3.74268			-6.11219			512074.00000
3.74268			-6.17955			512174.00000
3.74268			-6.14378			512275.00000
3.74268			-6.11085			512374.00000
3.74268			-6.07139			512474.00000
3.74268			-6.05453			512575.00000
3.74268			-6.04123			512674.00000
3.74268			-6.03085			512774.00000
3.74268			-6.01979			512875.00000
-3.74268			4.61026			514631.00000
-3.74268			4.87332			514732.00000
-3.74268			4.95104			514833.00000
-3.74268			4.91135			514932.00000
-3.74268			4.89288			515032.00000
-3.74268			4.87717			515133.00000
-3.74268			4.86485			515232.00000
-3.74268			4.85482			515332.00000
-3.74268			4.84447			515433.00000
-3.74268			4.83570			515532.00000
-0.00732			-0.01762			516609.00000
-0.00732			-0.13699			516711.00000
-0.00732			-0.15539			516810.00000
-0.00732			-0.14121			516910.00000
-0.00732			-0.12837			517011.00000
-0.00732			-0.11746			517110.00000
-0.00732			-0.11073			517210.00000
-0.00732			-0.09894			517311.00000
-0.00732			-0.09532			517410.00000
-0.00732			-0.09115			517510.00000
3.49121			-5.29417			518299.00000
3.49121			-5.57558			518400.00000
3.49121			-5.63374			518501.00000
3.49121			-5.60481			518600.00000
3.49121			-5.57814			518700.00000
3.49121			-5.54044			518801.00000
3.49121			-5.52584			518900.00000
3.49121			-5.51405			519000.00000
3.49121			-5.50410			519101.00000
3.49121			-5.49470			519200.00000
-3.49121			4.39252			520920.00000
-3.49121			4.55182			521022.00000
-3.49121			4.57002			521121.00000
-3.49121			4.54536			521221.00000
-3.49121			4.52505			521322.00000
-3.49121			4.50939			521421.00000
-3.49121			4.49738			521521.00000
-3.49121			4.47571			521622.00000
-3.49121			4.46762			521721.00000
-3.49121			4.45922			521821.00000
-0.00732			0.04443			522868.00000
-0.00732			-0.10869			522969.00000
-0.00732			-0.14257			523070.00000
-0.00732			-0.13269			523169.00000
-0.00732			-0.11879			523269.00000
-0.00732			-0.10801			523370.00000
-0.00732			-0.09338			523469.00000
-0.00732			-0.08961			523569.00000
-0.00732			-0.08506			523670.00000
-0.00732			-0.07971			523769.00000
3.23975			-4.82422			524533.00000
3.23975			-5.07871			524634.00000
3.23975			-5.11802			524735.00000
3.23975			-5.08598			524834.00000
3.23975			-5.06049			524934.00000
3.23975			-5.04279			525035.00000
3.23975			-5.01349			525134.00000
3.23975			-5.00207			525234.00000
3.23975			-4.99255			525335.00000
3.23975			-4.98297			525434.00000
-3.24219			3.96959			527094.00000
-3.24219			4.16959			527194.00000
-3.24219			4.20895			527295.00000
-3.24219			4.18759			527394.00000
-3.24219			4.16678			527494.00000
-3.24219			4.15092			527595.00000
-3.24219			4.12634			527694.00000
-3.24219			4.11661			527794.00000
-3.24219			4.10862			527895.00000
-3.24219			4.10107			527994.00000
-0.00732			0.04757			529016.00000
-0.00732			-0.09818			529117.00000
-0.00732			-0.13043			529218.00000
-0.00732			-0.12098			529317.00000
-0.00732			-0.10907			529417.00000
-0.00732			-0.10057			529518.00000
-0.00732			-0.09331			529617.00000
-0.00732			-0.08031			529717.00000
-0.00732			-0.07689			529818.00000
-0.00732			-0.07445			529917.00000
2.99072			-4.03945			530650.00000
2.99072			-4.47127			530752.00000
2.99072			-4.62442			530851.00000
2.99072			-4.59670			530951.00000
2.99072			-4.57654			531052.00000
2.99072			-4.56073			531151.00000
2.99072			-4.54713			531251.00000
2.99072			-4.53507			531352.00000
2.99072			-4.52378			531451.00000
2.99072			-4.51531			531551.00000
-2.99072			3.61883			533156.00000
-2.99072			3.82011			533257.00000
-2.99072			3.86098			533358.00000
-2.99072			3.84161			533457.00000
-2.99072			3.82265			533557.00000
-2.99072			3.80717			533658.00000
-2.99072			3.78475			533757.00000
-2.99072			3.77580			533858.00000
-2.99072			3.76786			533957.00000
-2.99072			3.76168			534057.00000
-0.00732			0.28048			535062.00000
-0.00732			-0.10374			535162.00000
-0.00732			-0.11568			535262.00000
-0.00732			-0.10512			535363.00000
-0.00732			-0.09336			535462.00000
-0.00732			-0.08499			535562.00000
-0.00732			-0.07885			535662.00000
-0.00732			-0.07227			535762.00000
-0.00732			-0.06749			535863.00000
-0.00732			-0.06141			535962.00000
2.73926			-3.84931			536678.00000
2.73926			-4.11084			536779.00000
2.73926			-4.16327			536879.00000
2.73926			-4.13630			536980.00000
2.73926			-4.11436			537079.00000
2.73926			-4.09860			537179.00000
2.73926			-4.07351			537280.00000
2.73926			-4.06258			537379.00000
2.73926			-4.05516			537479.00000
2.73926			-4.04730			537580.00000
-2.74170			3.29251			539141.00000
-2.74170			3.48366			539242.00000
-2.74170			3.52269			539341.00000
-2.74170			3.50329			539441.00000
-2.74170			3.48512			539542.00000
-2.74170			3.47127			539641.00000
-2.74170			3.45013			539741.00000
-2.74170			3.44136			539842.00000
-2.74170			3.43419			539941.00000
-2.74170			3.42806			540041.00000
-0.00732			0.21196			541015.00000
-0.00732			-0.02233			541117.00000
-0.00732			-0.09889			541216.00000
-0.00732			-0.10095			541315.00000
-0.00732			-0.08026			541417.00000
-0.00732			-0.07207			541516.00000
-0.00732			-0.06588			541616.00000
-0.00732			-0.06058			541717.00000
-0.00732			-0.05623			541816.00000
-0.00732			-0.05314			541916.00000
2.49268			-3.21616			542614.00000
2.49268			-3.58589			542714.00000
2.49268			-3.71408			542814.00000
2.49268			-3.69136			542915.00000
2.49268			-3.67567			543014.00000
2.49268			-3.66288			543114.00000
2.49268			-3.65019			543214.00000
2.49268			-3.64023			543314.00000
2.49268			-3.63109			543415.00000
2.49268			-3.62367			543514.00000
-2.49268			2.96226			545040.00000
-2.49268			3.15592			545141.00000
-2.49268			3.20029			545241.00000
-2.49268			3.18407			545342.00000
-2.49268			3.16640			545441.00000
-2.49268			3.14308			545541.00000
-2.49268			3.13436			545642.00000
-2.49268			3.12619			545741.00000
-2.49268			3.11872			545841.00000
-2.49268			3.11302			545942.00000
-0.00732			0.17139			546884.00000
-0.00732			-0.03442			546985.00000
-0.00732			-0.08906			547086.00000
-0.00732			-0.08524			547185.00000
-0.00732			-0.07629			547285.00000
-0.00732			-0.06053			547386.00000
-0.00732			-0.05623			547485.00000
-0.00732			-0.05153			547585.00000
-0.00732			-0.04658			547686.00000
-0.00732			-0.04374			547785.00000
2.23877			-3.04828			548446.00000
2.23877			-3.25906			548547.00000
2.23877			-3.28495			548646.00000
2.23877			-3.26097			548746.00000
2.23877			-3.24401			548846.00000
2.23877			-3.23038			548946.00000
2.23877			-3.22028			549047.00000
2.23877			-3.20195			549146.00000
2.23877			-3.19582			549246.00000
2.23877			-3.18987			549347.00000
-2.24121			2.42311			550798.00000
-2.24121			2.74401			550899.00000
-2.24121			2.87273			550999.00000
-2.24121			2.85297			551100.00000
-2.24121			2.84025			551199.00000
-2.24121			2.82917			551299.00000
-2.24121			2.81924			551400.00000
-2.24121			2.81127			551499.00000
-2.24121			2.80454			551599.00000
-2.24121			2.79280			551700.00000
-0.00732			0.23810			552611.00000
-0.00732			-0.00207			552712.00000
-0.00732			-0.07375			552813.00000
-0.00732			-0.07146			552912.00000
-0.00732			-0.06164			553012.00000
-0.00732			-0.04801			553113.00000
-0.00732			-0.04417			553212.00000
-0.00732			-0.04042			553313.00000
-0.00732			-0.03580			553412.00000
-0.00732			-0.03213			553512.00000
1.99219			-2.28621			554149.00000
1.99219			-2.86743			554249.00000
1.99219			-2.88302			554350.00000
1.99219			-2.86193			554449.00000
1.99219			-2.84783			554549.00000
1.99219			-2.83662			554650.00000
1.99219			-2.82807			554749.00000
1.99219			-2.81963			554850.00000
1.99219			-2.80540			554949.00000
1.99219			-2.79929			555049.00000
-1.99219			2.37113			556458.00000
-1.99219			2.53903			556560.00000
-1.99219			2.56874			556659.00000
-1.99219			2.55386			556759.00000
-1.99219			2.54014			556860.00000
-1.99219			2.53024			556959.00000
-1.99219			2.51950			557059.00000
-1.99219			2.50550			557160.00000
-1.99219			2.49902			557259.00000
-1.99219			2.49346			557359.00000
-0.00732			0.28410			558248.00000
-0.00732			0.02551			558349.00000
-0.00732			-0.05714			558448.00000
-0.00732			-0.05834			558548.00000
-0.00732			-0.04356			558649.00000
-0.00732			-0.03809			558748.00000
-0.00732			-0.03268			558848.00000
-0.00732			-0.02720			558949.00000
-0.00732			-0.02320			559048.00000
-0.00732			-0.02195			559148.00000
1.73828			-2.02870			559748.00000
1.73828			-2.37031			559849.00000
1.73828			-2.48013			559948.00000
1.73828			-2.47246			560048.00000
1.73828			-2.44348			560149.00000
1.73828			-2.43375			560248.00000
1.73828			-2.42521			560348.00000
1.73828			-2.41933			560449.00000
1.73828			-2.41254			560548.00000
1.73828			-2.40618			560648.00000
-1.74316			1.73097			561985.00000
-1.74316			2.24312			562085.00000
-1.74316			2.26340			562185.00000
-1.74316			2.24624			562286.00000
-1.74316			2.23427			562385.00000
-1.74316			2.22404			562485.00000
-1.74316			2.21577			562586.00000
-1.74316			2.20974			562685.00000
-1.74316			2.19790			562786.00000
-1.74316			2.19325			562885.00000
-0.00732			0.52672			563742.00000
-0.00732			-0.01619			563843.00000
-0.00732			-0.04746			563944.00000
-0.00732			-0.03959			564043.00000
-0.00732			-0.03173			564143.00000
-0.00732			-0.02572			564244.00000
-0.00732			-0.02222			564343.00000
-0.00732			-0.01803			564443.00000
-0.00732			-0.01262			564544.00000
-0.00732			-0.00998			564643.00000
1.49170			-1.61752			565206.00000
1.49170			-1.97532			565307.00000
1.49170			-2.09843			565406.00000
1.49170			-2.08335			565506.00000
1.49170			-2.07256			565607.00000
1.49170			-2.06492			565706.00000
1.49170			-2.05653			565806.00000
1.49170			-2.04901			565907.00000
1.49170			-2.04391			566006.00000
1.49170			-2.04011			566106.00000
-1.49170			1.68691			567382.00000
-1.49170			1.90460			567484.00000
-1.49170			1.96055			567583.00000
-1.49170			1.95097			567683.00000
-1.49170			1.93921			567784.00000
-1.49170			1.92096			567883.00000
-1.49170			1.91488			567983.00000
-1.49170			1.90963			568084.00000
-1.49170			1.90395			568183.00000
-1.49170			1.89960			568283.00000
-0.00732			0.17086			569110.00000
-0.00732			0.00080			569211.00000
-0.00732			-0.03316			569311.00000
-0.00732			-0.02647			569412.00000
-0.00732			-0.01855			569511.00000
-0.00732			-0.01325			569612.00000
-0.00732			-0.00968			569711.00000
-0.00732			-0.00631			569811.00000
-0.00732			-0.00141			569912.00000
-0.00732			0.00191			570011.00000
1.24268			-1.38944			570549.00000
1.24268			-1.66151			570651.00000
1.24268			-1.73095			570750.00000
1.24268			-1.71768			570851.00000
1.24268			-1.70471			570950.00000
1.24268			-1.68973			571050.00000
1.24268			-1.68403			571151.00000
1.24268			-1.67965			571250.00000
1.24268			-1.67525			571350.00000
1.24268			-1.67121			571451.00000
-1.24268			1.36789			572664.00000
-1.24268			1.59783			572764.00000
-1.24268			1.66122			572865.00000
-1.24268			1.65287			572964.00000
-1.24268			1.64046			573064.00000
-1.24268			1.62651			573165.00000
-1.24268			1.61980			573264.00000
-1.24268			1.61434			573364.00000
-1.24268			1.61045			573465.00000
-1.24268			1.60572			573564.00000
-0.00732			0.43875			574355.00000
-0.00732			0.11428			574455.00000
-0.00732			-0.00199			574555.00000
-0.00732			-0.00780			574656.00000
-0.00732			-0.00297			574755.00000
-0.00732			0.00233			574855.00000
-0.00732			0.00643			574956.00000
-0.00732			0.00899			575055.00000
-0.00732			0.01178			575155.00000
-0.00732			0.01322			575256.00000
0.99121			-0.94772			575751.00000
0.99121			-1.26334			575852.00000
0.99121			-1.36353			575951.00000
0.99121			-1.36092			576051.00000
0.99121			-1.34242			576152.00000
0.99121			-1.33674			576251.00000
0.99121			-1.33143			576351.00000
0.99121			-1.32751			576452.00000
0.99121			-1.32264			576551.00000
0.99121			-1.31851			576652.00000
-0.99121			0.97594			577780.00000
-0.99121			1.25903			577880.00000
-0.99121			1.35326			577981.00000
-0.99121			1.35422			578080.00000
-0.99121			1.33564			578180.00000
-0.99121			1.32979			578281.00000
-0.99121			1.32567			578380.00000
-0.99121			1.32212			578480.00000
-0.99121			1.31760			578581.00000
-0.99121			1.31320			578680.00000
-0.00732			0.35809			579434.00000
-0.00732			0.08890			579534.00000
-0.00732			0.00970			579634.00000
-0.00732			0.00628			579735.00000
-0.00732			0.01163			579834.00000
-0.00732			0.01927			579934.00000
-0.00732			0.02302			580035.00000
-0.00732			0.02513			580134.00000
-0.00732			0.02523			580234.00000
-0.00732			0.02757			580335.00000
0.74219			-0.46857			580781.00000
0.74219			-0.83740			580883.00000
0.74219			-0.98970			580982.00000
0.74219			-0.99012			581082.00000
0.74219			-0.98369			581183.00000
0.74219			-0.97876			581282.00000
0.74219			-0.97462			581382.00000
0.74219			-0.96971			581483.00000
0.74219			-0.96710			581582.00000
0.74219			-0.96434			581682.00000
-0.74463			0.58737			582714.00000
-0.74463			0.91468			582815.00000
-0.74463			1.04463			582915.00000
-0.74463			1.04192			583016.00000
-0.74463			1.03470			583115.00000
-0.74463			1.03061			583215.00000
-0.74463			1.02711			583316.00000
-0.74463			1.02327			583415.00000
-0.74463			1.01924			583515.00000
-0.74463			1.01666			583616.00000
-0.00732			0.65122			584320.00000
-0.00732			0.06607			584421.00000
-0.00732			0.02654			584520.00000
-0.00732			0.03038			584620.00000
-0.00732			0.03451			584721.00000
-0.00732			0.03606			584820.00000
-0.00732			0.03807			584920.00000
-0.00732			0.04144			585021.00000
-0.00732			0.04456			585120.00000
-0.00732			0.04551			585220.00000
0.49072			-0.17789			585619.00000
0.49072			-0.48280			585720.00000
0.49072			-0.63175			585820.00000
0.49072			-0.64296			585921.00000
0.49072			-0.63763			586020.00000
0.49072			-0.63326			586120.00000
0.49072			-0.63077			586221.00000
0.49072			-0.62873			586320.00000
0.49072			-0.62790			586420.00000
0.49072			-0.62634			586521.00000
-0.49072			0.35588			587448.00000
-0.49072			0.62736			587549.00000
-0.49072			0.73258			587649.00000
-0.49072			0.73602			587750.00000
-0.49072			0.72361			587849.00000
-0.49072			0.72047			587949.00000
-0.49072			0.71871			588050.00000
-0.49072			0.71554			588149.00000
-0.49072			0.71217			588249.00000
-0.49072			0.71154			588350.00000
-0.00732			0.36066			588999.00000
-0.00732			0.11838			589100.00000
-0.00732			0.04717			589201.00000
-0.00732			0.04481			589300.00000
-0.00732			0.04788			589400.00000
-0.00732			0.05079			589501.00000
-0.00732			0.05310			589600.00000
-0.00732			0.05401			589700.00000
-0.00732			0.05421			589801.00000
-0.00732			0.05439			589900.00000
0.23926			-0.05412			590232.00000
0.23926			-0.22728			590333.00000
0.23926			-0.28938			590434.00000
0.23926			-0.28481			590533.00000
0.23926			-0.28049			590633.00000
0.23926			-0.27868			590734.00000
0.23926			-0.27689			590833.00000
0.23926			-0.27292			590933.00000
0.23926			-0.27350			591034.00000
0.23926			-0.27171			591133.00000
-0.24414			0.12007			591920.00000
-0.24414			0.29769			592022.00000
-0.24414			0.38790			592121.00000
-0.24414			0.39019			592221.00000
-0.24414			0.38564			592322.00000
-0.24414			0.38139			592421.00000
-0.24414			0.37999			592521.00000
-0.24414			0.37916			592622.00000
-0.24414			0.37815			592721.00000
-0.24414			0.37730			592821.00000
-0.00732			0.30322			593404.00000
-0.00732			0.15412			593506.00000
-0.00732			0.07359			593605.00000
-0.00732			0.06514			593705.00000
-0.00732			0.06454			593806.00000
-0.00732			0.06582			593905.00000
-0.00732			0.06821			594005.00000
-0.00732			0.06856			594106.00000
-0.00732			0.06934			594205.00000
-0.00732			0.06927			594305.00000
