# Acquired on 27/02/2024 15:08:21 
# SPIDER: Tracking_07714532C-1
# STATIC MEASUREMENT

# pos [mm]		 force [N]		 time [ms]
0.24170			-0.04656			235.00000
0.24170			-0.18266			336.00000
0.24170			-0.27277			437.00000
0.24170			-0.28265			536.00000
0.24170			-0.27631			636.00000
0.24170			-0.27378			737.00000
0.24170			-0.27199			836.00000
0.24170			-0.26986			936.00000
0.24170			-0.26908			1036.00000
0.24170			-0.26777			1136.00000
-0.24170			0.03161			1930.00000
-0.24170			0.17016			2031.00000
-0.24170			0.31313			2131.00000
-0.24170			0.30830			2232.00000
-0.24170			0.30551			2331.00000
-0.24170			0.30322			2432.00000
-0.24170			0.30217			2531.00000
-0.24170			0.30157			2631.00000
-0.24170			0.30026			2732.00000
-0.24170			0.29835			2831.00000
-0.00732			0.27173			3415.00000
-0.00732			0.16282			3515.00000
-0.00732			0.05378			3615.00000
-0.00732			0.02754			3716.00000
-0.00732			0.02968			3815.00000
-0.00732			0.03151			3915.00000
-0.00732			0.03350			4016.00000
-0.00732			0.03378			4115.00000
-0.00732			0.03267			4215.00000
-0.00732			0.03302			4316.00000
0.49072			-0.23474			4713.00000
0.49072			-0.46714			4814.00000
0.49072			-0.54699			4915.00000
0.49072			-0.54742			5014.00000
0.49072			-0.53975			5114.00000
0.49072			-0.53159			5215.00000
0.49072			-0.52792			5314.00000
0.49072			-0.52580			5414.00000
0.49072			-0.52379			5515.00000
0.49072			-0.52110			5614.00000
-0.49072			0.37923			6542.00000
-0.49072			0.57337			6642.00000
-0.49072			0.62593			6743.00000
-0.49072			0.62272			6842.00000
-0.49072			0.61751			6942.00000
-0.49072			0.61387			7043.00000
-0.49072			0.60969			7142.00000
-0.49072			0.60688			7242.00000
-0.49072			0.60421			7343.00000
-0.49072			0.60386			7442.00000
-0.00732			0.47927			8098.00000
-0.00732			0.06580			8200.00000
-0.00732			0.03187			8298.00000
-0.00732			0.03473			8399.00000
-0.00732			0.03905			8500.00000
-0.00732			0.03921			8599.00000
-0.00732			0.03941			8699.00000
-0.00732			0.04164			8800.00000
-0.00732			0.04385			8899.00000
-0.00732			0.04506			8999.00000
0.74219			-0.53754			9452.00000
0.74219			-0.75843			9552.00000
0.74219			-0.81622			9654.00000
0.74219			-0.81227			9753.00000
0.74219			-0.80465			9853.00000
0.74219			-0.79410			9954.00000
0.74219			-0.79083			10053.00000
0.74219			-0.78688			10154.00000
0.74219			-0.78407			10253.00000
0.74219			-0.78193			10353.00000
-0.74219			0.65006			11390.00000
-0.74219			0.86637			11492.00000
-0.74219			0.92768			11591.00000
-0.74219			0.92318			11692.00000
-0.74219			0.91398			11791.00000
-0.74219			0.90523			11891.00000
-0.74219			0.90171			11992.00000
-0.74219			0.89930			12091.00000
-0.74219			0.89714			12191.00000
-0.74219			0.89541			12292.00000
-0.00732			0.44735			12995.00000
-0.00732			0.15525			13095.00000
-0.00732			0.04413			13197.00000
-0.00732			0.03576			13296.00000
-0.00732			0.04069			13397.00000
-0.00732			0.04207			13496.00000
-0.00732			0.04230			13596.00000
-0.00732			0.04358			13697.00000
-0.00732			0.04541			13796.00000
-0.00732			0.04637			13896.00000
0.99121			-0.75670			14398.00000
0.99121			-1.00038			14499.00000
0.99121			-1.07357			14600.00000
0.99121			-1.07174			14699.00000
0.99121			-1.05510			14799.00000
0.99121			-1.05100			14900.00000
0.99121			-1.04633			14999.00000
0.99121			-1.04183			15099.00000
0.99121			-1.03957			15200.00000
0.99121			-1.03577			15299.00000
-0.99365			0.86542			16428.00000
-0.99365			1.12730			16528.00000
-0.99365			1.21540			16629.00000
-0.99365			1.20746			16730.00000
-0.99365			1.20064			16829.00000
-0.99365			1.19607			16929.00000
-0.99365			1.19162			17030.00000
-0.99365			1.18745			17129.00000
-0.99365			1.18473			17229.00000
-0.99365			1.18227			17330.00000
-0.00732			0.34573			18082.00000
-0.00732			0.10604			18184.00000
-0.00732			0.03363			18283.00000
-0.00732			0.03262			18383.00000
-0.00732			0.03576			18484.00000
-0.00732			0.04147			18583.00000
-0.00732			0.04428			18683.00000
-0.00732			0.04622			18784.00000
-0.00732			0.04850			18883.00000
-0.00732			0.04991			18983.00000
1.24268			-0.92193			19523.00000
1.24268			-1.21797			19623.00000
1.24268			-1.33998			19724.00000
1.24268			-1.32774			19823.00000
1.24268			-1.32100			19923.00000
1.24268			-1.31404			20024.00000
1.24268			-1.30763			20123.00000
1.24268			-1.30341			20224.00000
1.24268			-1.29891			20323.00000
1.24268			-1.29446			20423.00000
-1.24268			1.12102			21632.00000
-1.24268			1.39941			21733.00000
-1.24268			1.50516			21833.00000
-1.24268			1.49216			21934.00000
-1.24268			1.48434			22033.00000
-1.24268			1.47763			22133.00000
-1.24268			1.47210			22234.00000
-1.24268			1.46707			22333.00000
-1.24268			1.46328			22433.00000
-1.24268			1.45707			22534.00000
-0.00732			0.21254			23328.00000
-0.00732			0.05813			23430.00000
-0.00732			0.02505			23529.00000
-0.00732			0.02890			23629.00000
-0.00732			0.03586			23730.00000
-0.00732			0.03870			23829.00000
-0.00732			0.04290			23929.00000
-0.00732			0.04803			24030.00000
-0.00732			0.04974			24129.00000
-0.00732			0.05192			24229.00000
1.49170			-1.18854			24799.00000
1.49170			-1.49177			24899.00000
1.49170			-1.61164			24999.00000
1.49170			-1.59862			25100.00000
1.49170			-1.59068			25199.00000
1.49170			-1.58364			25299.00000
1.49170			-1.57760			25400.00000
1.49170			-1.57182			25499.00000
1.49170			-1.56695			25600.00000
1.49170			-1.55986			25699.00000
-1.49414			1.48356			26975.00000
-1.49414			1.71770			27076.00000
-1.49414			1.79094			27176.00000
-1.49414			1.78533			27277.00000
-1.49414			1.76372			27376.00000
-1.49414			1.75661			27477.00000
-1.49414			1.75158			27576.00000
-1.49414			1.74758			27676.00000
-1.49414			1.74311			27777.00000
-1.49414			1.73760			27876.00000
-0.00732			0.23398			28709.00000
-0.00732			0.06288			28811.00000
-0.00732			0.02020			28910.00000
-0.00732			0.02518			29009.00000
-0.00732			0.03109			29111.00000
-0.00732			0.03488			29210.00000
-0.00732			0.04212			29310.00000
-0.00732			0.04428			29411.00000
-0.00732			0.04662			29510.00000
-0.00732			0.04981			29611.00000
1.74072			-1.62976			30210.00000
1.74072			-1.84622			30311.00000
1.74072			-1.90109			30411.00000
1.74072			-1.89257			30512.00000
1.74072			-1.88056			30611.00000
1.74072			-1.86399			30711.00000
1.74072			-1.85761			30812.00000
1.74072			-1.85331			30911.00000
1.74072			-1.84957			31011.00000
1.74072			-1.84547			31112.00000
-1.73828			1.67610			32447.00000
-1.73828			1.95952			32547.00000
-1.73828			2.06491			32648.00000
-1.73828			2.05011			32747.00000
-1.73828			2.04088			32847.00000
-1.73828			2.03402			32947.00000
-1.73828			2.02683			33047.00000
-1.73828			2.02062			33147.00000
-1.73828			2.01562			33248.00000
-1.73828			2.00775			33347.00000
-0.00732			0.39658			34205.00000
-0.00732			0.12557			34306.00000
-0.00732			0.01279			34405.00000
-0.00732			0.02030			34505.00000
-0.00732			0.02561			34606.00000
-0.00732			0.03139			34705.00000
-0.00732			0.03468			34805.00000
-0.00732			0.03672			34906.00000
-0.00732			0.03880			35005.00000
-0.00732			0.04255			35105.00000
1.98975			-1.97989			35747.00000
1.98975			-2.15983			35849.00000
1.98975			-2.19500			35948.00000
1.98975			-2.18341			36048.00000
1.98975			-2.17051			36149.00000
1.98975			-2.16081			36248.00000
1.98975			-2.14623			36348.00000
1.98975			-2.14063			36449.00000
1.98975			-2.13532			36548.00000
1.98975			-2.13100			36648.00000
-1.99463			2.08703			38059.00000
-1.99463			2.29909			38159.00000
-1.99463			2.35801			38259.00000
-1.99463			2.34798			38360.00000
-1.99463			2.32413			38459.00000
-1.99463			2.31631			38559.00000
-1.99463			2.30895			38660.00000
-1.99463			2.30294			38759.00000
-1.99463			2.29703			38859.00000
-1.99463			2.29336			38960.00000
-0.00732			0.41533			39847.00000
-0.00732			0.02196			39948.00000
-0.00732			0.00530			40047.00000
-0.00732			0.01339			40147.00000
-0.00732			0.01983			40248.00000
-0.00732			0.02430			40347.00000
-0.00732			0.03018			40448.00000
-0.00732			0.03277			40547.00000
-0.00732			0.03501			40647.00000
-0.00732			0.03988			40748.00000
2.24121			-2.13515			41401.00000
2.24121			-2.40342			41501.00000
2.24121			-2.48890			41603.00000
2.24121			-2.48641			41702.00000
2.24121			-2.45919			41802.00000
2.24121			-2.45082			41903.00000
2.24121			-2.44310			42002.00000
2.24121			-2.43574			42102.00000
2.24121			-2.43117			42203.00000
2.24121			-2.42556			42302.00000
-2.24121			2.37782			43760.00000
-2.24121			2.59433			43862.00000
-2.24121			2.65171			43961.00000
-2.24121			2.63932			44061.00000
-2.24121			2.62447			44162.00000
-2.24121			2.60544			44261.00000
-2.24121			2.59850			44361.00000
-2.24121			2.59237			44462.00000
-2.24121			2.58682			44561.00000
-2.24121			2.58234			44661.00000
-0.00732			0.45205			45574.00000
-0.00732			0.02176			45674.00000
-0.00732			-0.00222			45774.00000
-0.00732			0.00565			45875.00000
-0.00732			0.01395			45974.00000
-0.00732			0.02003			46074.00000
-0.00732			0.02430			46175.00000
-0.00732			0.02782			46274.00000
-0.00732			0.03428			46374.00000
-0.00732			0.03478			46475.00000
2.49023			-2.61759			47171.00000
2.49023			-2.78031			47272.00000
2.49023			-2.80575			47373.00000
2.49023			-2.79012			47472.00000
2.49023			-2.77584			47573.00000
2.49023			-2.76571			47672.00000
2.49023			-2.74917			47772.00000
2.49023			-2.74186			47873.00000
2.49023			-2.73565			47972.00000
2.49023			-2.73047			48072.00000
-2.49268			2.62809			49592.00000
-2.49268			2.87381			49692.00000
-2.49268			2.95293			49793.00000
-2.49268			2.93054			49892.00000
-2.49268			2.91840			49992.00000
-2.49268			2.90987			50093.00000
-2.49268			2.90246			50192.00000
-2.49268			2.89412			50292.00000
-2.49268			2.88771			50393.00000
-2.49268			2.88293			50492.00000
-0.00732			0.30456			51435.00000
-0.00732			0.07776			51536.00000
-0.00732			-0.00227			51637.00000
-0.00732			0.00266			51736.00000
-0.00732			0.01005			51836.00000
-0.00732			0.01555			51937.00000
-0.00732			0.02121			52036.00000
-0.00732			0.02525			52136.00000
-0.00732			0.02820			52237.00000
-0.00732			0.02991			52336.00000
2.74170			-2.95913			53051.00000
2.74170			-3.11009			53152.00000
2.74170			-3.13007			53253.00000
2.74170			-3.11408			53352.00000
2.74170			-3.09865			53452.00000
2.74170			-3.08742			53553.00000
2.74170			-3.07801			53652.00000
2.74170			-3.06992			53752.00000
2.74170			-3.05635			53853.00000
2.74170			-3.05160			53952.00000
-2.74170			3.10058			55515.00000
-2.74170			3.24420			55615.00000
-2.74170			3.25988			55715.00000
-2.74170			3.24073			55816.00000
-2.74170			3.22539			55915.00000
-2.74170			3.21401			56015.00000
-2.74170			3.20488			56116.00000
-2.74170			3.19089			56215.00000
-2.74170			3.18480			56315.00000
-2.74170			3.17963			56416.00000
-0.00732			0.18054			57389.00000
-0.00732			0.02495			57490.00000
-0.00732			-0.01742			57590.00000
-0.00732			-0.01318			57691.00000
-0.00732			-0.00400			57790.00000
-0.00732			0.00975			57890.00000
-0.00732			0.01402			57991.00000
-0.00732			0.01875			58090.00000
-0.00732			0.02149			58190.00000
-0.00732			0.02304			58291.00000
2.99072			-2.94035			59024.00000
2.99072			-3.45253			59125.00000
2.99072			-3.46276			59226.00000
2.99072			-3.44350			59325.00000
2.99072			-3.42794			59425.00000
2.99072			-3.41558			59526.00000
2.99072			-3.40565			59625.00000
2.99072			-3.39723			59725.00000
2.99072			-3.38381			59826.00000
2.99072			-3.37760			59925.00000
-2.99316			3.29200			61530.00000
-2.99316			3.52340			61631.00000
-2.99316			3.58427			61731.00000
-2.99316			3.56904			61832.00000
-2.99316			3.55099			61931.00000
-2.99316			3.52671			62031.00000
-2.99316			3.51847			62132.00000
-2.99316			3.51068			62231.00000
-2.99316			3.50379			62331.00000
-2.99316			3.49731			62432.00000
-0.00732			0.10031			63428.00000
-0.00732			-0.00737			63530.00000
-0.00732			-0.02474			63628.00000
-0.00732			-0.01737			63729.00000
-0.00732			-0.00843			63830.00000
-0.00732			-0.00084			63929.00000
-0.00732			0.00565			64029.00000
-0.00732			0.00985			64130.00000
-0.00732			0.01578			64229.00000
-0.00732			0.01822			64329.00000
3.24219			-3.31692			65093.00000
3.24219			-3.81311			65195.00000
3.24219			-3.82571			65294.00000
3.24219			-3.80620			65394.00000
3.24219			-3.78901			65495.00000
3.24219			-3.77481			65594.00000
3.24219			-3.76513			65694.00000
3.24219			-3.75706			65795.00000
3.24219			-3.74253			65894.00000
3.24219			-3.73522			65994.00000
-3.23975			3.39287			67648.00000
-3.23975			3.89783			67748.00000
-3.23975			3.91063			67849.00000
-3.23975			3.88798			67948.00000
-3.23975			3.87099			68048.00000
-3.23975			3.85890			68149.00000
-3.23975			3.84915			68248.00000
-3.23975			3.83932			68348.00000
-3.23975			3.82595			68449.00000
-3.23975			3.81986			68548.00000
-0.00732			0.28538			69571.00000
-0.00732			0.06286			69671.00000
-0.00732			-0.02989			69772.00000
-0.00732			-0.01876			69871.00000
-0.00732			-0.01076			69971.00000
-0.00732			-0.00488			70072.00000
-0.00732			-0.00033			70171.00000
-0.00732			0.00432			70272.00000
-0.00732			0.00937			70371.00000
-0.00732			0.01515			70471.00000
3.49121			-4.00841			71260.00000
3.49121			-4.16882			71361.00000
3.49121			-4.18798			71461.00000
3.49121			-4.16603			71562.00000
3.49121			-4.14696			71661.00000
3.49121			-4.13188			71761.00000
3.49121			-4.12127			71862.00000
3.49121			-4.10209			71961.00000
3.49121			-4.09460			72061.00000
3.49121			-4.08764			72162.00000
-3.49365			3.87918			73869.00000
-3.49365			4.16034			73970.00000
-3.49365			4.25073			74071.00000
-3.49365			4.22788			74170.00000
-3.49365			4.21303			74270.00000
-3.49365			4.20058			74371.00000
-3.49365			4.18895			74470.00000
-3.49365			4.17995			74570.00000
-3.49365			4.17145			74671.00000
-3.49365			4.16399			74770.00000
-0.00732			0.26286			75810.00000
-0.00732			0.04534			75911.00000
-0.00732			-0.04304			76011.00000
-0.00732			-0.02979			76111.00000
-0.00732			-0.02034			76212.00000
-0.00732			-0.01265			76311.00000
-0.00732			-0.00802			76411.00000
-0.00732			-0.00315			76512.00000
-0.00732			0.00168			76611.00000
-0.00732			0.00799			76711.00000
3.74268			-4.32182			77531.00000
3.74268			-4.53052			77631.00000
3.74268			-4.57769			77731.00000
3.74268			-4.56128			77832.00000
3.74268			-4.54130			77931.00000
3.74268			-4.51252			78031.00000
3.74268			-4.50013			78132.00000
3.74268			-4.49065			78231.00000
3.74268			-4.48294			78331.00000
3.74268			-4.47452			78432.00000
-3.74023			4.26933			80194.00000
-3.74023			4.53581			80294.00000
-3.74023			4.61589			80395.00000
-3.74023			4.57821			80494.00000
-3.74023			4.56295			80594.00000
-3.74023			4.54953			80695.00000
-3.74023			4.53752			80794.00000
-3.74023			4.52812			80894.00000
-3.74023			4.51985			80995.00000
-3.74023			4.51279			81094.00000
-0.00732			0.06620			82165.00000
-0.00732			-0.03426			82267.00000
-0.00732			-0.04975			82365.00000
-0.00732			-0.03896			82466.00000
-0.00732			-0.02874			82567.00000
-0.00732			-0.02373			82666.00000
-0.00732			-0.01818			82766.00000
-0.00732			-0.00838			82867.00000
-0.00732			-0.00503			82966.00000
-0.00732			0.00017			83065.00000
3.99170			-4.51556			83892.00000
3.99170			-4.85576			83992.00000
3.99170			-4.97518			84092.00000
3.99170			-4.94205			84193.00000
3.99170			-4.92383			84292.00000
3.99170			-4.91023			84392.00000
3.99170			-4.89736			84493.00000
3.99170			-4.88603			84592.00000
3.99170			-4.87600			84693.00000
3.99170			-4.86725			84792.00000
-3.99414			4.68079			86591.00000
-3.99414			4.92719			86691.00000
-3.99414			4.99379			86793.00000
-3.99414			4.97552			86892.00000
-3.99414			4.95340			86992.00000
-3.99414			4.92118			87093.00000
-3.99414			4.91019			87192.00000
-3.99414			4.89974			87292.00000
-3.99414			4.89112			87393.00000
-3.99414			4.88131			87492.00000
-0.00732			0.28362			88569.00000
-0.00732			-0.04678			88671.00000
-0.00732			-0.05776			88770.00000
-0.00732			-0.04683			88870.00000
-0.00732			-0.03640			88971.00000
-0.00732			-0.02886			89070.00000
-0.00732			-0.02265			89170.00000
-0.00732			-0.01662			89271.00000
-0.00732			-0.00868			89370.00000
-0.00732			-0.00347			89470.00000
4.24072			-4.87552			90327.00000
4.24072			-5.38594			90428.00000
4.24072			-5.39355			90528.00000
4.24072			-5.36784			90629.00000
4.24072			-5.34680			90728.00000
4.24072			-5.33066			90828.00000
4.24072			-5.31591			90929.00000
4.24072			-5.30450			91028.00000
4.24072			-5.28454			91128.00000
4.24072			-5.27527			91229.00000
-4.24072			5.16808			93076.00000
-4.24072			5.34415			93177.00000
-4.24072			5.36625			93278.00000
-4.24072			5.33940			93377.00000
-4.24072			5.31801			93477.00000
-4.24072			5.30120			93578.00000
-4.24072			5.28659			93677.00000
-4.24072			5.26498			93777.00000
-4.24072			5.25550			93878.00000
-4.24072			5.24695			93977.00000
-0.00732			0.25738			95085.00000
-0.00732			-0.05935			95185.00000
-0.00732			-0.06981			95286.00000
-0.00732			-0.05784			95385.00000
-0.00732			-0.04590			95485.00000
-0.00732			-0.03803			95586.00000
-0.00732			-0.03195			95685.00000
-0.00732			-0.02750			95786.00000
-0.00732			-0.01712			95885.00000
-0.00732			-0.01416			95985.00000
4.49219			-5.61399			96847.00000
4.49219			-5.81808			96948.00000
4.49219			-5.84055			97047.00000
4.49219			-5.81004			97147.00000
4.49219			-5.78659			97248.00000
4.49219			-5.76809			97347.00000
4.49219			-5.75251			97447.00000
4.49219			-5.72807			97548.00000
4.49219			-5.71719			97647.00000
4.49219			-5.70764			97747.00000
-4.49219			5.43700			99607.00000
-4.49219			5.71414			99708.00000
-4.49219			5.78210			99809.00000
-4.49219			5.75684			99909.00000
-4.49219			5.73105			100008.00000
-4.49219			5.69685			100109.00000
-4.49219			5.68458			100208.00000
-4.49219			5.67214			100309.00000
-4.49219			5.66176			100408.00000
-4.49219			5.65258			100508.00000
-0.00732			0.10415			101627.00000
-0.00732			-0.04542			101728.00000
-0.00732			-0.08182			101828.00000
-0.00732			-0.07287			101928.00000
-0.00732			-0.06053			102029.00000
-0.00732			-0.04399			102128.00000
-0.00732			-0.03643			102229.00000
-0.00732			-0.03022			102328.00000
-0.00732			-0.02657			102428.00000
-0.00732			-0.02217			102529.00000
4.74121			-5.79433			103419.00000
4.74121			-6.16623			103520.00000
4.74121			-6.28846			103620.00000
4.74121			-6.26008			103720.00000
4.74121			-6.23872			103821.00000
4.74121			-6.22014			103920.00000
4.74121			-6.20413			104021.00000
4.74121			-6.18988			104120.00000
4.74121			-6.17837			104220.00000
4.74121			-6.15311			104321.00000
-4.74121			5.65095			106248.00000
-4.74121			6.18479			106348.00000
-4.74121			6.18633			106448.00000
-4.74121			6.15554			106549.00000
-4.74121			6.13286			106648.00000
-4.74121			6.11570			106748.00000
-4.74121			6.10039			106849.00000
-4.74121			6.08737			106948.00000
-4.74121			6.06668			107048.00000
-4.74121			6.05653			107149.00000
-0.00732			0.03878			108298.00000
-0.00732			-0.06953			108398.00000
-0.00732			-0.08833			108498.00000
-0.00732			-0.07639			108599.00000
-0.00732			-0.06470			108697.00000
-0.00732			-0.05540			108798.00000
-0.00732			-0.04283			108899.00000
-0.00732			-0.03781			108998.00000
-0.00732			-0.03381			109099.00000
-0.00732			-0.02951			109198.00000
4.99023			-6.22517			110103.00000
4.99023			-6.63012			110203.00000
4.99023			-6.76394			110304.00000
4.99023			-6.73343			110403.00000
4.99023			-6.71070			110503.00000
4.99023			-6.69165			110604.00000
4.99023			-6.67461			110703.00000
4.99023			-6.65996			110803.00000
4.99023			-6.64595			110904.00000
4.99023			-6.62346			111003.00000
-4.99512			6.40442			112949.00000
-4.99512			6.61606			113050.00000
-4.99512			6.64371			113150.00000
-4.99512			6.61020			113251.00000
-4.99512			6.58431			113350.00000
-4.99512			6.56574			113451.00000
-4.99512			6.54995			113550.00000
-4.99512			6.52075			113650.00000
-4.99512			6.51009			113751.00000
-4.99512			6.50006			113850.00000
-0.00732			0.10476			115012.00000
-0.00732			-0.05259			115114.00000
-0.00732			-0.10027			115213.00000
-0.00732			-0.07724			115313.00000
-0.00732			-0.06742			115414.00000
-0.00732			-0.06073			115513.00000
-0.00732			-0.05379			115613.00000
-0.00732			-0.04721			115714.00000
-0.00732			-0.04178			115813.00000
-0.00732			-0.03718			115913.00000
5.23926			-6.92385			116842.00000
5.23926			-7.21101			116943.00000
5.23926			-7.27855			117044.00000
5.23926			-7.25271			117143.00000
5.23926			-7.22416			117243.00000
5.23926			-7.18110			117344.00000
5.23926			-7.16359			117443.00000
5.23926			-7.15039			117543.00000
5.23926			-7.13760			117644.00000
5.23926			-7.12586			117743.00000
-5.24170			6.80811			119738.00000
-5.24170			7.05778			119839.00000
-5.24170			7.10627			119940.00000
-5.24170			7.07289			120039.00000
-5.24170			7.04479			120139.00000
-5.24170			7.00595			120240.00000
-5.24170			6.98992			120339.00000
-5.24170			6.97594			120439.00000
-5.24170			6.96430			120540.00000
-5.24170			6.95292			120639.00000
-0.00732			0.19127			121820.00000
-0.00732			-0.09886			121921.00000
-0.00732			-0.10489			122021.00000
-0.00732			-0.09067			122122.00000
-0.00732			-0.08016			122221.00000
-0.00732			-0.07003			122321.00000
-0.00732			-0.06123			122422.00000
-0.00732			-0.05623			122521.00000
-0.00732			-0.04646			122621.00000
-0.00732			-0.04176			122722.00000
5.49072			-7.58057			123669.00000
5.49072			-7.77537			123769.00000
5.49072			-7.78977			123870.00000
5.49072			-7.75300			123969.00000
5.49072			-7.72606			124069.00000
5.49072			-7.70399			124170.00000
5.49072			-7.68408			124269.00000
5.49072			-7.66850			124369.00000
5.49072			-7.63901			124470.00000
5.49072			-7.62763			124569.00000
-5.49316			7.24149			126607.00000
-5.49316			7.53012			126708.00000
-5.49316			7.60004			126809.00000
-5.49316			7.56878			126908.00000
-5.49316			7.53690			127008.00000
-5.49316			7.49440			127109.00000
-5.49316			7.47718			127208.00000
-5.49316			7.46230			127308.00000
-5.49316			7.44956			127409.00000
-5.49316			7.43813			127508.00000
-0.00732			0.02702			128719.00000
-0.00732			-0.08747			128821.00000
-0.00732			-0.11422			128920.00000
-0.00732			-0.10271			129019.00000
-0.00732			-0.08001			129121.00000
-0.00732			-0.07068			129220.00000
-0.00732			-0.06468			129320.00000
-0.00732			-0.05794			129421.00000
-0.00732			-0.05271			129520.00000
-0.00732			-0.04716			129621.00000
5.74219			-7.82232			130597.00000
5.74219			-8.21041			130699.00000
5.74219			-8.33304			130798.00000
5.74219			-8.29828			130898.00000
5.74219			-8.27038			130999.00000
5.74219			-8.24763			131098.00000
5.74219			-8.22823			131198.00000
5.74219			-8.21063			131299.00000
5.74219			-8.19490			131398.00000
5.74219			-8.16951			131499.00000
-5.73975			7.74379			133560.00000
-5.73975			8.04325			133661.00000
-5.73975			8.12104			133762.00000
-5.73975			8.08668			133861.00000
-5.73975			8.02749			133961.00000
-5.73975			8.00690			134062.00000
-5.73975			7.99017			134161.00000
-5.73975			7.97576			134261.00000
-5.73975			7.96176			134362.00000
-5.73975			7.94761			134461.00000
-0.00732			0.06361			135691.00000
-0.00732			-0.07865			135791.00000
-0.00732			-0.11990			135891.00000
-0.00732			-0.10562			135992.00000
-0.00732			-0.09434			136091.00000
-0.00732			-0.08509			136192.00000
-0.00732			-0.07679			136291.00000
-0.00732			-0.07144			136391.00000
-0.00732			-0.06498			136492.00000
-0.00732			-0.05872			136591.00000
5.98877			-8.65103			137575.00000
5.98877			-8.87870			137676.00000
5.98877			-8.89820			137777.00000
5.98877			-8.85741			137876.00000
5.98877			-8.82395			137976.00000
5.98877			-8.79751			138077.00000
5.98877			-8.77590			138176.00000
5.98877			-8.74096			138276.00000
5.98877			-8.72603			138377.00000
5.98877			-8.71145			138476.00000
-5.99365			8.40540			140563.00000
-5.99365			8.64498			140664.00000
-5.99365			8.66924			140765.00000
-5.99365			8.62467			140864.00000
-5.99365			8.59265			140964.00000
-5.99365			8.56802			141065.00000
-5.99365			8.54761			141164.00000
-5.99365			8.51526			141264.00000
-5.99365			8.50133			141365.00000
-5.99365			8.48844			141464.00000
-0.00732			0.00980			142700.00000
-0.00732			-0.11012			142800.00000
-0.00732			-0.13639			142901.00000
-0.00732			-0.12314			143000.00000
-0.00732			-0.10849			143100.00000
-0.00732			-0.08868			143201.00000
-0.00732			-0.08152			143300.00000
-0.00732			-0.07586			143400.00000
-0.00732			-0.06802			143501.00000
-0.00732			-0.06262			143600.00000
6.24023			-9.27249			144597.00000
6.24023			-9.48533			144698.00000
6.24023			-9.49795			144798.00000
6.24023			-9.45841			144899.00000
6.24023			-9.42518			144998.00000
6.24023			-9.39741			145098.00000
6.24023			-9.37381			145199.00000
6.24023			-9.35360			145298.00000
6.24023			-9.32012			145398.00000
6.24023			-9.30589			145499.00000
-6.24268			8.82988			147627.00000
-6.24268			9.18101			147728.00000
-6.24268			9.26230			147828.00000
-6.24268			9.21989			147929.00000
-6.24268			9.15175			148028.00000
-6.24268			9.12843			148128.00000
-6.24268			9.10978			148229.00000
-6.24268			9.09339			148329.00000
-6.24268			9.07818			148428.00000
-6.24268			9.06441			148529.00000
-0.00732			0.10727			149776.00000
-0.00732			-0.13920			149876.00000
-0.00732			-0.13792			149977.00000
-0.00732			-0.12216			150076.00000
-0.00732			-0.10891			150176.00000
-0.00732			-0.09909			150277.00000
-0.00732			-0.09125			150376.00000
-0.00732			-0.08456			150476.00000
-0.00732			-0.07046			150577.00000
-0.00732			-0.06631			150676.00000
6.49170			-9.53276			151703.00000
6.49170			-9.97778			151803.00000
6.49170			-10.10677			151904.00000
6.49170			-10.05977			152003.00000
6.49170			-10.02674			152103.00000
6.49170			-9.99909			152204.00000
6.49170			-9.97521			152303.00000
6.49170			-9.95583			152403.00000
6.49170			-9.93789			152504.00000
6.49170			-9.90659			152603.00000
-6.49414			9.24028			154787.00000
-6.49414			9.86845			154888.00000
-6.49414			9.85802			154987.00000
-6.49414			9.80901			155087.00000
-6.49414			9.77699			155188.00000
-6.49414			9.75133			155287.00000
-6.49414			9.72966			155387.00000
-6.49414			9.71048			155488.00000
-6.49414			9.69233			155587.00000
-6.49414			9.66353			155687.00000
-0.00732			0.01942			156965.00000
-0.00732			-0.11070			157067.00000
-0.00732			-0.14898			157166.00000
-0.00732			-0.12586			157266.00000
-0.00732			-0.11236			157367.00000
-0.00732			-0.10213			157466.00000
-0.00732			-0.09283			157566.00000
-0.00732			-0.08589			157667.00000
-0.00732			-0.07994			157766.00000
-0.00732			-0.07611			157866.00000
6.74072			-10.19773			158898.00000
6.74072			-10.63805			158999.00000
6.74072			-10.77443			159099.00000
6.74072			-10.70720			159200.00000
6.74072			-10.67206			159299.00000
6.74072			-10.64320			159399.00000
6.74072			-10.61859			159500.00000
6.74072			-10.59638			159599.00000
6.74072			-10.57742			159699.00000
6.74072			-10.56046			159800.00000
-6.74072			10.28019			162008.00000
-6.74072			10.51108			162108.00000
-6.74072			10.51669			162208.00000
-6.74072			10.46400			162309.00000
-6.74072			10.42783			162408.00000
-6.74072			10.39906			162508.00000
-6.74072			10.37500			162609.00000
-6.74072			10.35449			162708.00000
-6.74072			10.31998			162808.00000
-6.74072			10.30409			162909.00000
-0.00732			0.07487			164198.00000
-0.00732			-0.14717			164299.00000
-0.00732			-0.14611			164400.00000
-0.00732			-0.13103			164499.00000
-0.00732			-0.11847			164599.00000
-0.00732			-0.10889			164700.00000
-0.00732			-0.09994			164799.00000
-0.00732			-0.09313			164899.00000
-0.00732			-0.07938			165000.00000
-0.00732			-0.07352			165099.00000
6.98975			-11.16249			166150.00000
6.98975			-11.43123			166251.00000
6.98975			-11.45823			166351.00000
6.98975			-11.40424			166452.00000
6.98975			-11.36040			166551.00000
6.98975			-11.32670			166651.00000
6.98975			-11.29988			166752.00000
6.98975			-11.25343			166851.00000
6.98975			-11.23460			166951.00000
6.98975			-11.21693			167052.00000
-6.99463			10.45272			169295.00000
-6.99463			11.21348			169397.00000
-6.99463			11.20491			169496.00000
-6.99463			11.14705			169596.00000
-6.99463			11.10894			169697.00000
-6.99463			11.07936			169796.00000
-6.99463			11.05490			169896.00000
-6.99463			11.03311			169997.00000
-6.99463			10.99581			170096.00000
-6.99463			10.97902			170197.00000
-0.00732			-0.10190			171505.00000
-0.00732			-0.16597			171606.00000
-0.00732			-0.16690			171705.00000
-0.00732			-0.15132			171805.00000
-0.00732			-0.13797			171906.00000
-0.00732			-0.12696			172005.00000
-0.00732			-0.11741			172105.00000
-0.00732			-0.10912			172206.00000
-0.00732			-0.09657			172305.00000
-0.00732			-0.09172			172405.00000
7.23877			-11.74472			173474.00000
7.23877			-12.10905			173576.00000
7.23877			-12.19127			173675.00000
7.23877			-12.14678			173775.00000
7.23877			-12.09867			173876.00000
7.23877			-12.03015			173975.00000
7.23877			-12.00376			174075.00000
7.23877			-11.98054			174176.00000
7.23877			-11.95884			174275.00000
7.23877			-11.94062			174375.00000
-7.23877			11.37095			176658.00000
-7.23877			11.81775			176758.00000
-7.23877			11.94707			176859.00000
-7.23877			11.85264			176958.00000
-7.23877			11.81682			177058.00000
-7.23877			11.78623			177159.00000
-7.23877			11.76130			177258.00000
-7.23877			11.73885			177358.00000
-7.23877			11.71950			177459.00000
-7.23877			11.70173			177558.00000
-0.00732			0.02857			178879.00000
-0.00732			-0.17670			178979.00000
-0.00732			-0.17540			179080.00000
-0.00732			-0.15843			179179.00000
-0.00732			-0.14247			179279.00000
-0.00732			-0.13164			179380.00000
-0.00732			-0.12309			179479.00000
-0.00732			-0.11475			179579.00000
-0.00732			-0.10278			179680.00000
-0.00732			-0.09775			179779.00000
7.49023			-12.45332			180860.00000
7.49023			-12.85508			180962.00000
7.49023			-12.94738			181061.00000
7.49023			-12.89397			181162.00000
7.49023			-12.80202			181261.00000
7.49023			-12.76894			181361.00000
7.49023			-12.74009			181462.00000
7.49023			-12.71548			181561.00000
7.49023			-12.69331			181661.00000
7.49023			-12.67333			181762.00000
-7.49512			11.90836			184060.00000
-7.49512			12.49534			184162.00000
-7.49512			12.70326			184261.00000
-7.49512			12.63725			184362.00000
-7.49512			12.59553			184461.00000
-7.49512			12.56265			184561.00000
-7.49512			12.53480			184662.00000
-7.49512			12.51052			184761.00000
-7.49512			12.48956			184861.00000
-7.49512			12.45223			184962.00000
-0.00732			-0.08881			186300.00000
-0.00732			-0.17630			186401.00000
-0.00732			-0.19076			186502.00000
-0.00732			-0.17502			186601.00000
-0.00732			-0.15773			186701.00000
-0.00732			-0.13516			186802.00000
-0.00732			-0.12731			186901.00000
-0.00732			-0.12050			187001.00000
-0.00732			-0.11281			187102.00000
-0.00732			-0.10708			187201.00000
7.73926			-13.43736			188301.00000
7.73926			-13.71171			188401.00000
7.73926			-13.72890			188502.00000
7.73926			-13.66423			188601.00000
7.73926			-13.61273			188701.00000
7.73926			-13.57352			188802.00000
7.73926			-13.54059			188901.00000
7.73926			-13.48637			189001.00000
7.73926			-13.46267			189102.00000
7.73926			-13.44209			189201.00000
-7.74170			12.61476			191538.00000
-7.74170			13.53636			191638.00000
-7.74170			13.52985			191738.00000
-7.74170			13.46186			191839.00000
-7.74170			13.41792			191938.00000
-7.74170			13.38183			192038.00000
-7.74170			13.35078			192139.00000
-7.74170			13.32447			192238.00000
-7.74170			13.28149			192338.00000
-7.74170			13.26211			192439.00000
-0.00732			-0.07018			193788.00000
-0.00732			-0.17640			193890.00000
-0.00732			-0.20146			193989.00000
-0.00732			-0.18580			194090.00000
-0.00732			-0.15667			194189.00000
-0.00732			-0.14659			194289.00000
-0.00732			-0.13729			194390.00000
-0.00732			-0.12963			194489.00000
-0.00732			-0.12198			194589.00000
-0.00732			-0.11661			194690.00000
7.98828			-14.07835			195794.00000
7.98828			-14.49255			195896.00000
7.98828			-14.56600			195995.00000
7.98828			-14.49620			196096.00000
7.98828			-14.43748			196195.00000
7.98828			-14.35622			196295.00000
7.98828			-14.32445			196396.00000
7.98828			-14.29464			196495.00000
7.98828			-14.27003			196595.00000
7.98828			-14.24729			196696.00000
-7.99072			13.96911			199037.00000
-7.99072			14.37494			199138.00000
-7.99072			14.43735			199237.00000
-7.99072			14.36021			199338.00000
-7.99072			14.30539			199437.00000
-7.99072			14.26575			199537.00000
-7.99072			14.20254			199638.00000
-7.99072			14.17768			199737.00000
-7.99072			14.15312			199837.00000
-7.99072			14.13279			199938.00000
-0.00732			0.00613			201301.00000
-0.00732			-0.20556			201400.00000
-0.00732			-0.20252			201500.00000
-0.00732			-0.18515			201601.00000
-0.00732			-0.16964			201700.00000
-0.00732			-0.15599			201800.00000
-0.00732			-0.14534			201901.00000
-0.00732			-0.13659			202000.00000
-0.00732			-0.12555			202100.00000
-0.00732			-0.11977			202201.00000
8.24219			-15.12880			203336.00000
8.24219			-15.40626			203437.00000
8.24219			-15.42572			203536.00000
8.24219			-15.35717			203636.00000
8.24219			-15.30205			203737.00000
8.24219			-15.25713			203836.00000
8.24219			-15.22001			203936.00000
8.24219			-15.15911			204037.00000
8.24219			-15.13365			204136.00000
8.24219			-15.11113			204236.00000
-8.24219			14.76375			206627.00000
-8.24219			15.25647			206729.00000
-8.24219			15.38690			206828.00000
-8.24219			15.32351			206928.00000
-8.24219			15.21208			207029.00000
-8.24219			15.17546			207128.00000
-8.24219			15.14304			207228.00000
-8.24219			15.11534			207329.00000
-8.24219			15.09061			207428.00000
-8.24219			15.06725			207528.00000
-0.00732			-0.09280			208923.00000
-0.00732			-0.19148			209024.00000
-0.00732			-0.21574			209123.00000
-0.00732			-0.18465			209223.00000
-0.00732			-0.17286			209324.00000
-0.00732			-0.16069			209423.00000
-0.00732			-0.15059			209523.00000
-0.00732			-0.14340			209624.00000
-0.00732			-0.13596			209723.00000
-0.00732			-0.12922			209823.00000
8.48877			-15.45130			210960.00000
8.48877			-16.12510			211060.00000
8.48877			-16.30609			211161.00000
8.48877			-16.22757			211260.00000
8.48877			-16.17210			211360.00000
8.48877			-16.12721			211461.00000
8.48877			-16.09046			211560.00000
8.48877			-16.05716			211660.00000
8.48877			-16.02737			211761.00000
8.48877			-15.97698			211860.00000
-8.49365			15.77290			214263.00000
-8.49365			16.29291			214365.00000
-8.49365			16.40710			214464.00000
-8.49365			16.32841			214564.00000
-8.49365			16.26064			214665.00000
-8.49365			16.17284			214764.00000
-8.49365			16.13979			214864.00000
-8.49365			16.11106			214965.00000
-8.49365			16.08374			215064.00000
-8.49365			16.06021			215164.00000
-0.00732			-0.10570			216558.00000
-0.00732			-0.20284			216659.00000
-0.00732			-0.22328			216760.00000
-0.00732			-0.20764			216859.00000
-0.00732			-0.17517			216960.00000
-0.00732			-0.16549			217059.00000
-0.00732			-0.15567			217159.00000
-0.00732			-0.14727			217260.00000
-0.00732			-0.13971			217359.00000
-0.00732			-0.13300			217459.00000
8.74268			-16.35270			218620.00000
8.74268			-17.31680			218721.00000
8.74268			-17.30780			218820.00000
8.74268			-17.22898			218920.00000
8.74268			-17.16825			219021.00000
8.74268			-17.11954			219120.00000
8.74268			-17.07885			219221.00000
8.74268			-17.04283			219320.00000
8.74268			-16.98228			219420.00000
8.74268			-16.95546			219521.00000
-8.74268			17.01208			221983.00000
-8.74268			17.41803			222085.00000
-8.74268			17.46534			222184.00000
-8.74268			17.37440			222284.00000
-8.74268			17.31013			222385.00000
-8.74268			17.26215			222484.00000
-8.74268			17.18599			222584.00000
-8.74268			17.15613			222685.00000
-8.74268			17.12923			222784.00000
-8.74268			17.10518			222884.00000
-0.00732			-0.11585			224298.00000
-0.00732			-0.21049			224397.00000
-0.00732			-0.23082			224497.00000
-0.00732			-0.21591			224598.00000
-0.00732			-0.18367			224697.00000
-0.00732			-0.17238			224797.00000
-0.00732			-0.16323			224898.00000
-0.00732			-0.15408			224997.00000
-0.00732			-0.14664			225097.00000
-0.00732			-0.14109			225198.00000
8.99170			-17.14266			226358.00000
8.99170			-18.34470			226458.00000
8.99170			-18.33477			226558.00000
8.99170			-18.24044			226659.00000
8.99170			-18.17408			226758.00000
8.99170			-18.12263			226859.00000
8.99170			-18.07922			226958.00000
8.99170			-18.03870			227058.00000
8.99170			-17.97546			227159.00000
8.99170			-17.94686			227258.00000
-8.99170			18.05543			229717.00000
-8.99170			18.55512			229816.00000
-8.99170			18.62358			229916.00000
-8.99170			18.52397			230017.00000
-8.99170			18.45415			230116.00000
-8.99170			18.40225			230216.00000
-8.99170			18.35916			230317.00000
-8.99170			18.28856			230416.00000
-8.99170			18.25870			230517.00000
-8.99170			18.23241			230617.00000
-0.00732			-0.11633			232034.00000
-0.00732			-0.21775			232135.00000
-0.00732			-0.23997			232236.00000
-0.00732			-0.22383			232335.00000
-0.00732			-0.19050			232435.00000
-0.00732			-0.17944			232536.00000
-0.00732			-0.16929			232635.00000
-0.00732			-0.16243			232735.00000
-0.00732			-0.15423			232836.00000
-0.00732			-0.14745			232935.00000
9.24072			-18.90671			234132.00000
9.24072			-19.36302			234233.00000
9.24072			-19.45219			234334.00000
9.24072			-19.37134			234433.00000
9.24072			-19.29555			234533.00000
9.24072			-19.18710			234634.00000
9.24072			-19.14467			234733.00000
9.24072			-19.10772			234833.00000
9.24072			-19.07487			234934.00000
9.24072			-19.04465			235033.00000
-9.23828			19.18915			237564.00000
-9.23828			19.72596			237666.00000
-9.23828			19.83793			237765.00000
-9.23828			19.74179			237866.00000
-9.23828			19.66163			237965.00000
-9.23828			19.55994			238065.00000
-9.23828			19.51864			238166.00000
-9.23828			19.48290			238265.00000
-9.23828			19.45065			238365.00000
-9.23828			19.42237			238466.00000
-0.00732			-0.19302			239908.00000
-0.00732			-0.24457			240009.00000
-0.00732			-0.23982			240108.00000
-0.00732			-0.22109			240208.00000
-0.00732			-0.20604			240309.00000
-0.00732			-0.19111			240408.00000
-0.00732			-0.18108			240508.00000
-0.00732			-0.16303			240609.00000
-0.00732			-0.15619			240708.00000
-0.00732			-0.15217			240808.00000
9.48975			-19.42816			242006.00000
9.48975			-20.62331			242107.00000
9.48975			-20.59830			242207.00000
9.48975			-20.49603			242308.00000
9.48975			-20.42288			242407.00000
9.48975			-20.36397			242507.00000
9.48975			-20.31448			242608.00000
9.48975			-20.27122			242707.00000
9.48975			-20.20021			242807.00000
9.48975			-20.16895			242908.00000
-9.49463			19.73865			245439.00000
-9.49463			21.13646			245539.00000
-9.49463			21.13276			245640.00000
-9.49463			21.01928			245739.00000
-9.49463			20.94724			245839.00000
-9.49463			20.89204			245940.00000
-9.49463			20.84393			246039.00000
-9.49463			20.80163			246139.00000
-9.49463			20.73211			246240.00000
-9.49463			20.70290			246339.00000
-0.00732			-0.10957			247794.00000
-0.00732			-0.21634			247895.00000
-0.00732			-0.23389			247994.00000
-0.00732			-0.21355			248094.00000
-0.00732			-0.19752			248195.00000
-0.00732			-0.18590			248294.00000
-0.00732			-0.17417			248394.00000
-0.00732			-0.16472			248495.00000
-0.00732			-0.15725			248594.00000
-0.00732			-0.15079			248694.00000
9.74121			-20.80627			249910.00000
9.74121			-21.61084			250011.00000
9.74121			-21.83434			250112.00000
9.74121			-21.73609			250211.00000
9.74121			-21.66249			250311.00000
9.74121			-21.60134			250412.00000
9.74121			-21.54845			250511.00000
9.74121			-21.50309			250611.00000
9.74121			-21.46264			250712.00000
9.74121			-21.39400			250811.00000
-9.74121			21.90353			253379.00000
-9.74121			22.45916			253480.00000
-9.74121			22.53366			253580.00000
-9.74121			22.41390			253680.00000
-9.74121			22.32738			253781.00000
-9.74121			22.26349			253880.00000
-9.74121			22.16390			253980.00000
-9.74121			22.12361			254081.00000
-9.74121			22.08664			254180.00000
-9.74121			22.05414			254280.00000
-0.00732			-0.19405			255748.00000
-0.00732			-0.25316			255849.00000
-0.00732			-0.25334			255949.00000
-0.00732			-0.23266			256050.00000
-0.00732			-0.21433			256149.00000
-0.00732			-0.20176			256249.00000
-0.00732			-0.18130			256350.00000
-0.00732			-0.17321			256449.00000
-0.00732			-0.16678			256549.00000
-0.00732			-0.15964			256650.00000
9.99268			-22.46923			257883.00000
9.99268			-23.07787			257983.00000
9.99268			-23.22333			258083.00000
9.99268			-23.12915			258184.00000
9.99268			-22.95725			258283.00000
9.99268			-22.89677			258383.00000
9.99268			-22.84474			258484.00000
9.99268			-22.80028			258583.00000
9.99268			-22.75961			258683.00000
9.99268			-22.72226			258784.00000
-9.99512			23.23309			261393.00000
-9.99512			23.88628			261494.00000
-9.99512			24.03566			261595.00000
-9.99512			23.91340			261694.00000
-9.99512			23.81113			261794.00000
-9.99512			23.68258			261895.00000
-9.99512			23.63211			261994.00000
-9.99512			23.58777			262094.00000
-9.99512			23.54804			262195.00000
-9.99512			23.51244			262294.00000
-0.00732			-0.16034			263786.00000
-0.00732			-0.24203			263887.00000
-0.00732			-0.25706			263988.00000
-0.00732			-0.22180			264087.00000
-0.00732			-0.20744			264187.00000
-0.00732			-0.19601			264288.00000
-0.00732			-0.18500			264387.00000
-0.00732			-0.17608			264487.00000
-0.00732			-0.16743			264588.00000
-0.00732			-0.16032			264687.00000
10.24170			-23.17429			265921.00000
10.24170			-24.63991			266021.00000
10.24170			-24.62837			266122.00000
10.24170			-24.51273			266221.00000
10.24170			-24.42332			266321.00000
10.24170			-24.35063			266422.00000
10.24170			-24.29059			266521.00000
10.24170			-24.23856			266621.00000
10.24170			-24.15096			266722.00000
10.24170			-24.11341			266821.00000
-10.23926			23.92921			269438.00000
-10.23926			25.59101			269539.00000
-10.23926			25.55643			269638.00000
-10.23926			25.41911			269739.00000
-10.23926			25.32978			269838.00000
-10.23926			25.25865			269938.00000
-10.23926			25.19916			270039.00000
-10.23926			25.14836			270138.00000
-10.23926			25.06262			270238.00000
-10.23926			25.02494			270339.00000
-0.00732			-0.21860			271823.00000
-0.00732			-0.27056			271925.00000
-0.00732			-0.26623			272024.00000
-0.00732			-0.24469			272124.00000
-0.00732			-0.22609			272225.00000
-0.00732			-0.21197			272324.00000
-0.00732			-0.20053			272424.00000
-0.00732			-0.18176			272525.00000
-0.00732			-0.17301			272624.00000
-0.00732			-0.16713			272725.00000
10.49072			-25.17813			273970.00000
10.49072			-25.96400			274070.00000
10.49072			-26.17878			274170.00000
10.49072			-26.07178			274271.00000
10.49072			-25.87298			274370.00000
10.49072			-25.80296			274470.00000
10.49072			-25.74449			274571.00000
10.49072			-25.69264			274670.00000
10.49072			-25.64607			274770.00000
10.49072			-25.60414			274871.00000
-10.49072			25.96801			277498.00000
-10.49072			26.97195			277600.00000
-10.49072			27.28136			277699.00000
-10.49072			27.02212			277799.00000
-10.49072			26.93425			277900.00000
-10.49072			26.86460			277999.00000
-10.49072			26.80347			278099.00000
-10.49072			26.74999			278200.00000
-10.49072			26.70364			278299.00000
-10.49072			26.66174			278400.00000
-0.00732			-0.12550			279897.00000
-0.00732			-0.27933			279998.00000
-0.00732			-0.26890			280098.00000
-0.00732			-0.24691			280199.00000
-0.00732			-0.23049			280298.00000
-0.00732			-0.21571			280398.00000
-0.00732			-0.20315			280499.00000
-0.00732			-0.19493			280598.00000
-0.00732			-0.18656			280698.00000
-0.00732			-0.17226			280798.00000
10.74219			-26.78456			282067.00000
10.74219			-27.59305			282168.00000
10.74219			-27.83344			282268.00000
10.74219			-27.75077			282369.00000
10.74219			-27.53921			282468.00000
10.74219			-27.46275			282568.00000
10.74219			-27.39757			282669.00000
10.74219			-27.34160			282768.00000
10.74219			-27.29143			282868.00000
10.74219			-27.24669			282969.00000
-10.74219			28.55538			285628.00000
-10.74219			29.03830			285728.00000
-10.74219			29.00962			285829.00000
-10.74219			28.83853			285928.00000
-10.74219			28.73291			286028.00000
-10.74219			28.65168			286129.00000
-10.74219			28.58283			286228.00000
-10.74219			28.47161			286328.00000
-10.74219			28.42390			286429.00000
-10.74219			28.38095			286528.00000
-0.00732			-0.18563			288056.00000
-0.00732			-0.26521			288157.00000
-0.00732			-0.28215			288258.00000
-0.00732			-0.24394			288357.00000
-0.00732			-0.22743			288457.00000
-0.00732			-0.21300			288558.00000
-0.00732			-0.20179			288657.00000
-0.00732			-0.19156			288757.00000
-0.00732			-0.18492			288858.00000
-0.00732			-0.17774			288957.00000
10.98877			-28.58691			290234.00000
10.98877			-29.40677			290334.00000
10.98877			-29.58181			290435.00000
10.98877			-29.43942			290534.00000
10.98877			-29.31050			290634.00000
10.98877			-29.13860			290735.00000
10.98877			-29.07094			290834.00000
10.98877			-29.01323			290934.00000
10.98877			-28.96183			291035.00000
10.98877			-28.91452			291134.00000
-10.99121			30.11054			293824.00000
-10.99121			30.87228			293925.00000
-10.99121			30.95530			294026.00000
-10.99121			30.75555			294125.00000
-10.99121			30.62633			294225.00000
-10.99121			30.53482			294326.00000
-10.99121			30.38931			294425.00000
-10.99121			30.33069			294525.00000
-10.99121			30.27847			294626.00000
-10.99121			30.23192			294725.00000
-0.00732			-0.15808			296253.00000
-0.00732			-0.29486			296354.00000
-0.00732			-0.28137			296455.00000
-0.00732			-0.25965			296554.00000
-0.00732			-0.24296			296654.00000
-0.00732			-0.22682			296755.00000
-0.00732			-0.21252			296854.00000
-0.00732			-0.20197			296954.00000
-0.00732			-0.19370			297055.00000
-0.00732			-0.18040			297154.00000
10.99121			-28.13529			298431.00000
10.99121			-29.12239			298531.00000
10.99121			-29.42288			298632.00000
10.99121			-29.17739			298731.00000
10.99121			-29.08127			298831.00000
10.99121			-29.00368			298932.00000
10.99121			-28.93699			299031.00000
10.99121			-28.87757			299131.00000
10.99121			-28.82537			299232.00000
10.99121			-28.78035			299331.00000
-10.99121			29.63961			302021.00000
-10.99121			30.59253			302123.00000
-10.99121			30.81839			302222.00000
-10.99121			30.64091			302322.00000
-10.99121			30.40308			302423.00000
-10.99121			30.32589			302522.00000
-10.99121			30.25969			302622.00000
-10.99121			30.20168			302723.00000
-10.99121			30.15148			302822.00000
-10.99121			30.10619			302922.00000
-0.00732			-0.24829			304450.00000
-0.00732			-0.29295			304551.00000
-0.00732			-0.28690			304652.00000
-0.00732			-0.26455			304751.00000
-0.00732			-0.24464			304851.00000
-0.00732			-0.23022			304952.00000
-0.00732			-0.21742			305051.00000
-0.00732			-0.19845			305152.00000
-0.00732			-0.19161			305251.00000
-0.00732			-0.18241			305351.00000
10.74219			-26.06499			306628.00000
10.74219			-27.40489			306728.00000
10.74219			-27.37742			306829.00000
10.74219			-27.25508			306928.00000
10.74219			-27.16005			307029.00000
10.74219			-27.08281			307129.00000
10.74219			-27.01942			307228.00000
10.74219			-26.96555			307329.00000
10.74219			-26.91742			307428.00000
10.74219			-26.83518			307528.00000
-10.73975			27.73915			310195.00000
-10.73975			28.48217			310295.00000
-10.73975			28.62893			310395.00000
-10.73975			28.47415			310496.00000
-10.73975			28.26847			310595.00000
-10.73975			28.19957			310695.00000
-10.73975			28.14116			310796.00000
-10.73975			28.08940			310895.00000
-10.73975			28.04366			310995.00000
-10.73975			28.00425			311095.00000
-0.00732			-0.25756			312623.00000
-0.00732			-0.29325			312723.00000
-0.00732			-0.28534			312824.00000
-0.00732			-0.26304			312925.00000
-0.00732			-0.24522			313024.00000
-0.00732			-0.23014			313124.00000
-0.00732			-0.21669			313225.00000
-0.00732			-0.19973			313324.00000
-0.00732			-0.19043			313423.00000
-0.00732			-0.18337			313525.00000
10.48828			-24.59520			314770.00000
10.48828			-25.39444			314870.00000
10.48828			-25.61397			314971.00000
10.48828			-25.51094			315070.00000
10.48828			-25.31725			315170.00000
10.48828			-25.25004			315271.00000
10.48828			-25.19175			315370.00000
10.48828			-25.14329			315470.00000
10.48828			-25.10056			315571.00000
10.48828			-25.06133			315670.00000
-10.49072			25.35366			318299.00000
-10.49072			26.35876			318400.00000
-10.49072			26.68283			318500.00000
-10.49072			26.43746			318601.00000
-10.49072			26.35557			318700.00000
-10.49072			26.28738			318800.00000
-10.49072			26.22914			318901.00000
-10.49072			26.18058			319000.00000
-10.49072			26.13697			319100.00000
-10.49072			26.09753			319201.00000
-0.00732			-0.14358			320704.00000
-0.00732			-0.29476			320804.00000
-0.00732			-0.28491			320905.00000
-0.00732			-0.26415			321004.00000
-0.00732			-0.24590			321104.00000
-0.00732			-0.23160			321205.00000
-0.00732			-0.21903			321304.00000
-0.00732			-0.20900			321404.00000
-0.00732			-0.19334			321505.00000
-0.00732			-0.18608			321604.00000
10.24170			-23.31130			322838.00000
10.24170			-23.89541			322939.00000
10.24170			-23.98846			323040.00000
10.24170			-23.88196			323139.00000
10.24170			-23.78721			323239.00000
10.24170			-23.71396			323340.00000
10.24170			-23.60123			323439.00000
10.24170			-23.55626			323539.00000
10.24170			-23.51653			323640.00000
10.24170			-23.47990			323739.00000
-10.23926			24.19984			326350.00000
-10.23926			24.80587			326452.00000
-10.23926			24.86101			326551.00000
-10.23926			24.71960			326651.00000
-10.23926			24.62575			326752.00000
-10.23926			24.55497			326851.00000
-10.23926			24.44789			326951.00000
-10.23926			24.40351			327052.00000
-10.23926			24.36477			327151.00000
-10.23926			24.33054			327251.00000
-0.00732			-0.22200			328737.00000
-0.00732			-0.28722			328838.00000
-0.00732			-0.28966			328937.00000
-0.00732			-0.26639			329037.00000
-0.00732			-0.24590			329138.00000
-0.00732			-0.22999			329237.00000
-0.00732			-0.20589			329337.00000
-0.00732			-0.19779			329438.00000
-0.00732			-0.18970			329537.00000
-0.00732			-0.18141			329637.00000
9.99023			-21.63806			330871.00000
9.99023			-22.28923			330973.00000
9.99023			-22.46681			331072.00000
9.99023			-22.38218			331172.00000
9.99023			-22.21074			331273.00000
9.99023			-22.15185			331372.00000
9.99023			-22.10160			331472.00000
9.99023			-22.05817			331573.00000
9.99023			-22.02011			331672.00000
9.99023			-21.98621			331772.00000
-9.99512			22.37237			334384.00000
-9.99512			23.05119			334485.00000
-9.99512			23.22922			334585.00000
-9.99512			23.11785			334686.00000
-9.99512			22.94402			334785.00000
-9.99512			22.88701			334885.00000
-9.99512			22.83817			334986.00000
-9.99512			22.79662			335085.00000
-9.99512			22.76023			335185.00000
-9.99512			22.72670			335286.00000
-0.00732			-0.19654			336777.00000
-0.00732			-0.27536			336877.00000
-0.00732			-0.29127			336977.00000
-0.00732			-0.25498			337078.00000
-0.00732			-0.23746			337177.00000
-0.00732			-0.22335			337277.00000
-0.00732			-0.21370			337378.00000
-0.00732			-0.20543			337477.00000
-0.00732			-0.19440			337578.00000
-0.00732			-0.18671			337677.00000
9.74121			-20.08007			338893.00000
9.74121			-20.82552			338994.00000
9.74121			-21.01516			339093.00000
9.74121			-20.91907			339193.00000
9.74121			-20.84686			339294.00000
9.74121			-20.78892			339393.00000
9.74121			-20.73996			339493.00000
9.74121			-20.69733			339594.00000
9.74121			-20.65996			339693.00000
9.74121			-20.59702			339793.00000
-9.74121			21.11680			342362.00000
-9.74121			21.60686			342463.00000
-9.74121			21.65642			342563.00000
-9.74121			21.53741			342664.00000
-9.74121			21.45499			342763.00000
-9.74121			21.39459			342863.00000
-9.74121			21.29976			342964.00000
-9.74121			21.26246			343063.00000
-9.74121			21.22875			343163.00000
-9.74121			21.19889			343264.00000
-0.00732			-0.23600			344730.00000
-0.00732			-0.28408			344830.00000
-0.00732			-0.27913			344931.00000
-0.00732			-0.25550			345031.00000
-0.00732			-0.23738			345132.00000
-0.00732			-0.22396			345231.00000
-0.00732			-0.21127			345331.00000
-0.00732			-0.19108			345432.00000
-0.00732			-0.18387			345531.00000
-0.00732			-0.17806			345631.00000
9.49219			-18.54769			346828.00000
9.49219			-19.75809			346930.00000
9.49219			-19.74464			347029.00000
9.49219			-19.63988			347129.00000
9.49219			-19.56664			347230.00000
9.49219			-19.50802			347329.00000
9.49219			-19.45996			347429.00000
9.49219			-19.41932			347530.00000
9.49219			-19.35274			347629.00000
9.49219			-19.32310			347729.00000
-9.49463			18.84698			350262.00000
-9.49463			20.22378			350362.00000
-9.49463			20.22657			350462.00000
-9.49463			20.11248			350563.00000
-9.49463			20.03982			350662.00000
-9.49463			19.98452			350763.00000
-9.49463			19.93759			350862.00000
-9.49463			19.89778			350962.00000
-9.49463			19.83343			351063.00000
-9.49463			19.80586			351162.00000
-0.00732			-0.15406			352618.00000
-0.00732			-0.24874			352718.00000
-0.00732			-0.26229			352819.00000
-0.00732			-0.23982			352918.00000
-0.00732			-0.22411			353018.00000
-0.00732			-0.21235			353119.00000
-0.00732			-0.20023			353218.00000
-0.00732			-0.19045			353318.00000
-0.00732			-0.18231			353419.00000
-0.00732			-0.16771			353518.00000
9.24072			-17.84813			354709.00000
9.24072			-18.39828			354810.00000
9.24072			-18.55945			354911.00000
9.24072			-18.49639			355010.00000
9.24072			-18.35349			355110.00000
9.24072			-18.30267			355211.00000
9.24072			-18.26014			355310.00000
9.24072			-18.22342			355410.00000
9.24072			-18.19057			355511.00000
9.24072			-18.16154			355610.00000
-9.24072			18.14119			358142.00000
-9.24072			18.74237			358243.00000
-9.24072			18.91183			358342.00000
-9.24072			18.74657			358443.00000
-9.24072			18.68753			358542.00000
-9.24072			18.63912			358642.00000
-9.24072			18.59848			358743.00000
-9.24072			18.56419			358842.00000
-9.24072			18.53357			358942.00000
-9.24072			18.50691			359043.00000
-0.00732			-0.22195			360484.00000
-0.00732			-0.27684			360585.00000
-0.00732			-0.27699			360684.00000
-0.00732			-0.25595			360784.00000
-0.00732			-0.23743			360885.00000
-0.00732			-0.22323			360984.00000
-0.00732			-0.20194			361084.00000
-0.00732			-0.19385			361185.00000
-0.00732			-0.18668			361284.00000
-0.00732			-0.17957			361384.00000
8.99170			-16.58223			362546.00000
8.99170			-17.24600			362646.00000
8.99170			-17.45333			362746.00000
8.99170			-17.30204			362847.00000
8.99170			-17.24175			362946.00000
8.99170			-17.19361			363046.00000
8.99170			-17.15136			363147.00000
8.99170			-17.11504			363246.00000
8.99170			-17.08387			363346.00000
8.99170			-17.05590			363447.00000
-8.99170			16.51174			365904.00000
-8.99170			17.35286			366005.00000
-8.99170			17.65098			366104.00000
-8.99170			17.55351			366204.00000
-8.99170			17.49110			366305.00000
-8.99170			17.44377			366404.00000
-8.99170			17.40408			366504.00000
-8.99170			17.36957			366605.00000
-8.99170			17.33853			366704.00000
-8.99170			17.28826			366805.00000
-0.00732			-0.20654			368222.00000
-0.00732			-0.26945			368323.00000
-0.00732			-0.26877			368423.00000
-0.00732			-0.24862			368524.00000
-0.00732			-0.23027			368623.00000
-0.00732			-0.21529			368723.00000
-0.00732			-0.19470			368824.00000
-0.00732			-0.18533			368923.00000
-0.00732			-0.17728			369024.00000
-0.00732			-0.17042			369123.00000
8.74268			-15.73370			370283.00000
8.74268			-16.25404			370384.00000
8.74268			-16.40206			370485.00000
8.74268			-16.26646			370584.00000
8.74268			-16.21046			370684.00000
8.74268			-16.16695			370785.00000
8.74268			-16.12887			370884.00000
8.74268			-16.09388			370984.00000
8.74268			-16.06332			371085.00000
8.74268			-16.03863			371184.00000
-8.74268			15.62108			373643.00000
-8.74268			16.29585			373744.00000
-8.74268			16.47801			373845.00000
-8.74268			16.39084			373944.00000
-8.74268			16.33577			374044.00000
-8.74268			16.29171			374145.00000
-8.74268			16.25519			374244.00000
-8.74268			16.22392			374344.00000
-8.74268			16.19401			374445.00000
-8.74268			16.14681			374544.00000
-0.00732			-0.21669			375951.00000
-0.00732			-0.26596			376051.00000
-0.00732			-0.26151			376152.00000
-0.00732			-0.24072			376251.00000
-0.00732			-0.22318			376351.00000
-0.00732			-0.21051			376452.00000
-0.00732			-0.19940			376551.00000
-0.00732			-0.18105			376651.00000
-0.00732			-0.17399			376752.00000
-0.00732			-0.16675			376851.00000
8.49121			-15.02227			377988.00000
8.49121			-15.37834			378089.00000
8.49121			-15.40468			378189.00000
8.49121			-15.31892			378290.00000
8.49121			-15.25447			378389.00000
8.49121			-15.20604			378489.00000
8.49121			-15.13310			378590.00000
8.49121			-15.10268			378689.00000
8.49121			-15.07724			378789.00000
8.49121			-15.05372			378890.00000
-8.49121			14.50026			381298.00000
-8.49121			15.20067			381400.00000
-8.49121			15.41467			381499.00000
-8.49121			15.33115			381599.00000
-8.49121			15.27718			381700.00000
-8.49121			15.23475			381799.00000
-8.49121			15.19899			381899.00000
-8.49121			15.16845			382000.00000
-8.49121			15.14153			382099.00000
-8.49121			15.09591			382199.00000
-0.00732			-0.10623			383594.00000
-0.00732			-0.26993			383694.00000
-0.00732			-0.25912			383795.00000
-0.00732			-0.23967			383894.00000
-0.00732			-0.22421			383994.00000
-0.00732			-0.21144			384095.00000
-0.00732			-0.20184			384194.00000
-0.00732			-0.19118			384294.00000
-0.00732			-0.17547			384395.00000
-0.00732			-0.16771			384494.00000
8.24219			-14.22645			385631.00000
8.24219			-14.47483			385731.00000
8.24219			-14.48157			385831.00000
8.24219			-14.41220			385932.00000
8.24219			-14.35755			386031.00000
8.24219			-14.31352			386131.00000
8.24219			-14.27712			386232.00000
8.24219			-14.21707			386331.00000
8.24219			-14.19257			386432.00000
8.24219			-14.16987			386531.00000
-8.24219			13.92351			388922.00000
-8.24219			14.34932			389023.00000
-8.24219			14.44494			389124.00000
-8.24219			14.37242			389223.00000
-8.24219			14.26271			389323.00000
-8.24219			14.22651			389424.00000
-8.24219			14.19507			389523.00000
-8.24219			14.16793			389623.00000
-8.24219			14.14397			389724.00000
-8.24219			14.12298			389823.00000
-0.00732			-0.16547			391218.00000
-0.00732			-0.24557			391318.00000
-0.00732			-0.25993			391418.00000
-0.00732			-0.22444			391519.00000
-0.00732			-0.21008			391618.00000
-0.00732			-0.19837			391718.00000
-0.00732			-0.18869			391819.00000
-0.00732			-0.18095			391918.00000
-0.00732			-0.17386			392018.00000
-0.00732			-0.16612			392119.00000
7.99072			-13.13800			393224.00000
7.99072			-13.55072			393325.00000
7.99072			-13.63125			393425.00000
7.99072			-13.55846			393526.00000
7.99072			-13.49449			393625.00000
7.99072			-13.41290			393725.00000
7.99072			-13.38234			393826.00000
7.99072			-13.35474			393925.00000
7.99072			-13.32946			394026.00000
7.99072			-13.30744			394125.00000
-7.99316			13.06246			396468.00000
-7.99316			13.45396			396568.00000
-7.99316			13.51751			396668.00000
-7.99316			13.43655			396769.00000
-7.99316			13.37889			396868.00000
-7.99316			13.33910			396968.00000
-7.99316			13.27578			397069.00000
-7.99316			13.25072			397168.00000
-7.99316			13.22838			397269.00000
-7.99316			13.20852			397368.00000
-0.00732			-0.20352			398732.00000
-0.00732			-0.25535			398832.00000
-0.00732			-0.24995			398933.00000
-0.00732			-0.22778			399032.00000
-0.00732			-0.21285			399132.00000
-0.00732			-0.19837			399233.00000
-0.00732			-0.18663			399332.00000
-0.00732			-0.17811			399432.00000
-0.00732			-0.16175			399533.00000
-0.00732			-0.15687			399632.00000
7.74170			-12.15829			400732.00000
7.74170			-12.65320			400833.00000
7.74170			-12.78146			400933.00000
7.74170			-12.71815			401034.00000
7.74170			-12.67062			401133.00000
7.74170			-12.63452			401233.00000
7.74170			-12.60205			401334.00000
7.74170			-12.57380			401433.00000
7.74170			-12.54964			401533.00000
7.74170			-12.50988			401634.00000
-7.73926			12.21689			403951.00000
-7.73926			12.58218			404053.00000
-7.73926			12.64328			404152.00000
-7.73926			12.57273			404252.00000
-7.73926			12.51844			404353.00000
-7.73926			12.44655			404452.00000
-7.73926			12.41936			404552.00000
-7.73926			12.39495			404653.00000
-7.73926			12.37344			404752.00000
-7.73926			12.35398			404852.00000
-0.00732			-0.07091			406204.00000
-0.00732			-0.24972			406304.00000
-0.00732			-0.24316			406405.00000
-0.00732			-0.22371			406504.00000
-0.00732			-0.20611			406604.00000
-0.00732			-0.19332			406704.00000
-0.00732			-0.18208			406804.00000
-0.00732			-0.17246			406904.00000
-0.00732			-0.15775			407005.00000
-0.00732			-0.15217			407104.00000
7.49023			-11.57563			408185.00000
7.49023			-11.95693			408287.00000
7.49023			-12.04481			408386.00000
7.49023			-11.99041			408486.00000
7.49023			-11.89460			408587.00000
7.49023			-11.86144			408686.00000
7.49023			-11.83251			408786.00000
7.49023			-11.80803			408887.00000
7.49023			-11.78614			408986.00000
7.49023			-11.76653			409086.00000
-7.49512			11.07333			411386.00000
-7.49512			11.83218			411488.00000
-7.49512			11.81074			411587.00000
-7.49512			11.74270			411687.00000
-7.49512			11.69977			411788.00000
-7.49512			11.66546			411887.00000
-7.49512			11.63683			411987.00000
-7.49512			11.61305			412088.00000
-7.49512			11.59201			412187.00000
-7.49512			11.55640			412288.00000
-0.00732			-0.15763			413626.00000
-0.00732			-0.23255			413727.00000
-0.00732			-0.24236			413828.00000
-0.00732			-0.22655			413927.00000
-0.00732			-0.21041			414027.00000
-0.00732			-0.18445			414128.00000
-0.00732			-0.17397			414227.00000
-0.00732			-0.16632			414327.00000
-0.00732			-0.15956			414428.00000
-0.00732			-0.15305			414527.00000
7.24121			-10.73716			415596.00000
7.24121			-11.17214			415697.00000
7.24121			-11.27733			415798.00000
7.24121			-11.22224			415897.00000
7.24121			-11.18124			415997.00000
7.24121			-11.14834			416098.00000
7.24121			-11.11981			416197.00000
7.24121			-11.09573			416298.00000
7.24121			-11.07447			416397.00000
7.24121			-11.05496			416497.00000
-7.24121			10.37573			418779.00000
-7.24121			11.07438			418880.00000
-7.24121			11.05581			418980.00000
-7.24121			10.99299			419081.00000
-7.24121			10.95280			419180.00000
-7.24121			10.92154			419280.00000
-7.24121			10.89477			419381.00000
-7.24121			10.87132			419480.00000
-7.24121			10.83233			419580.00000
-7.24121			10.81617			419681.00000
-0.00732			-0.16695			421001.00000
-0.00732			-0.22984			421102.00000
-0.00732			-0.23077			421202.00000
-0.00732			-0.21086			421303.00000
-0.00732			-0.19475			421402.00000
-0.00732			-0.18171			421502.00000
-0.00732			-0.16082			421603.00000
-0.00732			-0.15386			421702.00000
-0.00732			-0.14838			421803.00000
-0.00732			-0.14255			421902.00000
6.99219			-10.23519			422954.00000
6.99219			-10.55319			423053.00000
6.99219			-10.61452			423153.00000
6.99219			-10.56372			423254.00000
6.99219			-10.51454			423353.00000
6.99219			-10.45004			423453.00000
6.99219			-10.42513			423554.00000
6.99219			-10.40231			423653.00000
6.99219			-10.38268			423753.00000
6.99219			-10.36483			423854.00000
-6.99463			10.10372			426097.00000
-6.99463			10.34841			426199.00000
-6.99463			10.36409			426298.00000
-6.99463			10.30178			426398.00000
-6.99463			10.25998			426499.00000
-6.99463			10.22741			426598.00000
-6.99463			10.20177			426698.00000
-6.99463			10.16017			426799.00000
-6.99463			10.14175			426898.00000
-6.99463			10.12448			426998.00000
-0.00732			-0.15064			428307.00000
-0.00732			-0.22172			428408.00000
-0.00732			-0.22733			428509.00000
-0.00732			-0.21006			428608.00000
-0.00732			-0.19558			428708.00000
-0.00732			-0.18276			428809.00000
-0.00732			-0.16411			428908.00000
-0.00732			-0.15645			429008.00000
-0.00732			-0.14981			429109.00000
-0.00732			-0.14461			429208.00000
6.74072			-9.64333			430240.00000
6.74072			-9.90961			430342.00000
6.74072			-9.94651			430441.00000
6.74072			-9.90034			430541.00000
6.74072			-9.85751			430642.00000
6.74072			-9.82322			430741.00000
6.74072			-9.77335			430841.00000
6.74072			-9.75335			430942.00000
6.74072			-9.73462			431041.00000
6.74072			-9.71728			431141.00000
-6.73828			9.22746			433350.00000
-6.73828			9.60449			433452.00000
-6.73828			9.70485			433551.00000
-6.73828			9.66034			433651.00000
-6.73828			9.57832			433752.00000
-6.73828			9.55203			433851.00000
-6.73828			9.52948			433951.00000
-6.73828			9.50975			434052.00000
-6.73828			9.49238			434151.00000
-6.73828			9.47637			434251.00000
-0.00732			-0.10205			435542.00000
-0.00732			-0.20018			435643.00000
-0.00732			-0.21981			435742.00000
-0.00732			-0.20443			435844.00000
-0.00732			-0.17364			435943.00000
-0.00732			-0.16293			436043.00000
-0.00732			-0.15373			436144.00000
-0.00732			-0.14694			436243.00000
-0.00732			-0.13968			436343.00000
-0.00732			-0.13433			436444.00000
6.49170			-9.00621			437469.00000
6.49170			-9.27389			437570.00000
6.49170			-9.31600			437670.00000
6.49170			-9.26829			437771.00000
6.49170			-9.22692			437870.00000
6.49170			-9.16968			437970.00000
6.49170			-9.14779			438071.00000
6.49170			-9.12804			438170.00000
6.49170			-9.11162			438270.00000
6.49170			-9.09586			438371.00000
-6.49170			8.76928			440548.00000
-6.49170			9.03749			440649.00000
-6.49170			9.08638			440750.00000
-6.49170			9.03641			440849.00000
-6.49170			8.99454			440949.00000
-6.49170			8.94243			441050.00000
-6.49170			8.92162			441149.00000
-6.49170			8.90352			441249.00000
-6.49170			8.88801			441350.00000
-6.49170			8.87386			441449.00000
-0.00732			-0.13418			442728.00000
-0.00732			-0.20098			442828.00000
-0.00732			-0.20310			442929.00000
-0.00732			-0.18477			443028.00000
-0.00732			-0.16992			443128.00000
-0.00732			-0.15871			443229.00000
-0.00732			-0.14958			443328.00000
-0.00732			-0.13398			443428.00000
-0.00732			-0.12641			443529.00000
-0.00732			-0.12183			443628.00000
6.24268			-8.19450			444624.00000
6.24268			-8.60254			444726.00000
6.24268			-8.70778			444825.00000
6.24268			-8.66359			444925.00000
6.24268			-8.63114			445026.00000
6.24268			-8.60289			445125.00000
6.24268			-8.57831			445226.00000
6.24268			-8.55908			445325.00000
6.24268			-8.54237			445425.00000
6.24268			-8.52817			445526.00000
-6.24268			8.24486			447653.00000
-6.24268			8.47658			447755.00000
-6.24268			8.49352			447854.00000
-6.24268			8.44177			447954.00000
-6.24268			8.40499			448055.00000
-6.24268			8.37873			448154.00000
-6.24268			8.33652			448254.00000
-6.24268			8.31981			448354.00000
-6.24268			8.30468			448454.00000
-6.24268			8.29091			448555.00000
-0.00732			-0.04731			449802.00000
-0.00732			-0.16833			449902.00000
-0.00732			-0.19948			450002.00000
-0.00732			-0.16886			450103.00000
-0.00732			-0.15702			450202.00000
-0.00732			-0.14679			450301.00000
-0.00732			-0.13862			450403.00000
-0.00732			-0.12975			450502.00000
-0.00732			-0.12400			450603.00000
-0.00732			-0.11869			450702.00000
5.98877			-7.51867			451680.00000
5.98877			-8.15182			451781.00000
5.98877			-8.14581			451882.00000
5.98877			-8.09909			451981.00000
5.98877			-8.06430			452081.00000
5.98877			-8.03758			452182.00000
5.98877			-8.01687			452281.00000
5.98877			-7.99711			452381.00000
5.98877			-7.96637			452482.00000
5.98877			-7.95217			452581.00000
-5.99365			7.30051			454674.00000
-5.99365			7.93479			454774.00000
-5.99365			7.93122			454875.00000
-5.99365			7.88367			454974.00000
-5.99365			7.85142			455074.00000
-5.99365			7.82704			455175.00000
-5.99365			7.80653			455274.00000
-5.99365			7.78843			455374.00000
-5.99365			7.75855			455475.00000
-5.99365			7.74558			455574.00000
-0.00732			-0.09999			456810.00000
-0.00732			-0.18284			456910.00000
-0.00732			-0.19304			457011.00000
-0.00732			-0.17691			457110.00000
-0.00732			-0.16182			457210.00000
-0.00732			-0.15019			457311.00000
-0.00732			-0.13425			457410.00000
-0.00732			-0.12586			457510.00000
-0.00732			-0.11884			457611.00000
-0.00732			-0.11259			457710.00000
5.74219			-7.25983			458688.00000
5.74219			-7.54830			458789.00000
5.74219			-7.62768			458890.00000
5.74219			-7.56502			458989.00000
5.74219			-7.53626			459089.00000
5.74219			-7.51258			459190.00000
5.74219			-7.49318			459289.00000
5.74219			-7.47589			459389.00000
5.74219			-7.46051			459490.00000
5.74219			-7.44686			459589.00000
-5.74219			7.16400			461651.00000
-5.74219			7.38300			461752.00000
-5.74219			7.41596			461851.00000
-5.74219			7.37343			461952.00000
-5.74219			7.34007			462051.00000
-5.74219			7.31418			462151.00000
-5.74219			7.27824			462252.00000
-5.74219			7.26251			462351.00000
-5.74219			7.24733			462451.00000
-5.74219			7.23493			462552.00000
-0.00732			-0.06337			463779.00000
-0.00732			-0.16384			463881.00000
-0.00732			-0.18573			463980.00000
-0.00732			-0.17072			464080.00000
-0.00732			-0.14234			464181.00000
-0.00732			-0.13242			464280.00000
-0.00732			-0.12548			464380.00000
-0.00732			-0.11864			464481.00000
-0.00732			-0.11211			464580.00000
-0.00732			-0.10658			464680.00000
5.48828			-6.76545			465628.00000
5.48828			-7.04613			465729.00000
5.48828			-7.11281			465829.00000
5.48828			-7.07825			465930.00000
5.48828			-7.01612			466029.00000
5.48828			-6.99636			466129.00000
5.48828			-6.97754			466230.00000
5.48828			-6.96092			466330.00000
5.48828			-6.94725			466429.00000
5.48828			-6.93443			466530.00000
-5.49316			6.41473			468567.00000
-5.49316			6.92449			468668.00000
-5.49316			6.91436			468768.00000
-5.49316			6.87407			468869.00000
-5.49316			6.84637			468968.00000
-5.49316			6.82450			469068.00000
-5.49316			6.80678			469169.00000
-5.49316			6.79047			469269.00000
-5.49316			6.76420			469368.00000
-5.49316			6.75267			469469.00000
-0.00732			0.02797			470679.00000
-0.00732			-0.17472			470780.00000
-0.00732			-0.17188			470881.00000
-0.00732			-0.15529			470980.00000
-0.00732			-0.14162			471080.00000
-0.00732			-0.13116			471181.00000
-0.00732			-0.12276			471280.00000
-0.00732			-0.11688			471381.00000
-0.00732			-0.10545			471480.00000
-0.00732			-0.10082			471580.00000
5.24170			-6.19119			472509.00000
5.24170			-6.52561			472609.00000
5.24170			-6.62934			472710.00000
5.24170			-6.57698			472809.00000
5.24170			-6.55032			472909.00000
5.24170			-6.53061			473010.00000
5.24170			-6.51281			473109.00000
5.24170			-6.49592			473209.00000
5.24170			-6.48182			473310.00000
5.24170			-6.47029			473409.00000
-5.24170			6.09448			475404.00000
-5.24170			6.38489			475505.00000
-5.24170			6.46429			475606.00000
-5.24170			6.39942			475705.00000
-5.24170			6.37526			475805.00000
-5.24170			6.35443			475906.00000
-5.24170			6.33882			476005.00000
-5.24170			6.32492			476105.00000
-5.24170			6.31054			476206.00000
-5.24170			6.29855			476305.00000
-0.00732			-0.05852			477486.00000
-0.00732			-0.15740			477587.00000
-0.00732			-0.17314			477687.00000
-0.00732			-0.15846			477788.00000
-0.00732			-0.14393			477887.00000
-0.00732			-0.13352			477987.00000
-0.00732			-0.11658			478088.00000
-0.00732			-0.11017			478187.00000
-0.00732			-0.10587			478287.00000
-0.00732			-0.09946			478388.00000
4.99268			-5.67363			479291.00000
4.99268			-6.04254			479392.00000
4.99268			-6.15323			479493.00000
4.99268			-6.11666			479592.00000
4.99268			-6.09105			479692.00000
4.99268			-6.07104			479793.00000
4.99268			-6.05332			479892.00000
4.99268			-6.03736			479992.00000
4.99268			-6.02459			480093.00000
4.99268			-6.00134			480192.00000
-4.99512			5.83760			482133.00000
-4.99512			6.01209			482232.00000
-4.99512			6.02466			482332.00000
-4.99512			5.98515			482433.00000
-4.99512			5.95840			482532.00000
-4.99512			5.93754			482632.00000
-4.99512			5.92110			482733.00000
-4.99512			5.89230			482832.00000
-4.99512			5.88084			482932.00000
-4.99512			5.87058			483033.00000
-0.00732			-0.00536			484194.00000
-0.00732			-0.13423			484295.00000
-0.00732			-0.16881			484396.00000
-0.00732			-0.15690			484495.00000
-0.00732			-0.12885			484595.00000
-0.00732			-0.11990			484696.00000
-0.00732			-0.11108			484795.00000
-0.00732			-0.10532			484895.00000
-0.00732			-0.09934			484996.00000
-0.00732			-0.09346			485095.00000
4.74121			-5.21841			485987.00000
4.74121			-5.71071			486088.00000
4.74121			-5.71051			486189.00000
4.74121			-5.67848			486288.00000
4.74121			-5.65320			486388.00000
4.74121			-5.63407			486489.00000
4.74121			-5.61808			486588.00000
4.74121			-5.60401			486688.00000
4.74121			-5.57953			486789.00000
4.74121			-5.56982			486888.00000
-4.74121			5.44723			488816.00000
-4.74121			5.59797			488918.00000
-4.74121			5.60425			489017.00000
-4.74121			5.56946			489117.00000
-4.74121			5.54440			489218.00000
-4.74121			5.52485			489317.00000
-4.74121			5.50904			489417.00000
-4.74121			5.48287			489518.00000
-4.74121			5.47216			489617.00000
-4.74121			5.46254			489717.00000
-0.00732			-0.03012			490867.00000
-0.00732			-0.13619			490969.00000
-0.00732			-0.15753			491068.00000
-0.00732			-0.14365			491168.00000
-0.00732			-0.12799			491269.00000
-0.00732			-0.10972			491368.00000
-0.00732			-0.10218			491468.00000
-0.00732			-0.09580			491569.00000
-0.00732			-0.09011			491668.00000
-0.00732			-0.08546			491768.00000
4.49219			-4.97614			492631.00000
4.49219			-5.24292			492731.00000
4.49219			-5.30593			492831.00000
4.49219			-5.27574			492932.00000
4.49219			-5.24513			493031.00000
4.49219			-5.20640			493131.00000
4.49219			-5.19210			493232.00000
4.49219			-5.17918			493331.00000
4.49219			-5.16791			493431.00000
4.49219			-5.15749			493532.00000
-4.49463			4.69861			495405.00000
-4.49463			5.21951			495505.00000
-4.49463			5.21931			495605.00000
-4.49463			5.18442			495706.00000
-4.49463			5.16069			495805.00000
-4.49463			5.14269			495905.00000
-4.49463			5.12759			496006.00000
-4.49463			5.11341			496105.00000
-4.49463			5.09142			496205.00000
-4.49463			5.08297			496306.00000
-0.00732			0.12821			497424.00000
-0.00732			-0.14224			497525.00000
-0.00732			-0.14363			497626.00000
-0.00732			-0.12676			497725.00000
-0.00732			-0.11339			497825.00000
-0.00732			-0.10406			497926.00000
-0.00732			-0.09630			498025.00000
-0.00732			-0.08896			498125.00000
-0.00732			-0.07991			498226.00000
-0.00732			-0.07425			498325.00000
4.23828			-4.44915			499181.00000
4.23828			-4.89135			499281.00000
4.23828			-4.89000			499382.00000
4.23828			-4.86300			499481.00000
4.23828			-4.84111			499581.00000
4.23828			-4.82369			499682.00000
4.23828			-4.80941			499781.00000
4.23828			-4.79642			499882.00000
4.23828			-4.78556			499981.00000
4.23828			-4.76508			500081.00000
-4.23828			4.68780			501930.00000
-4.23828			4.83487			502031.00000
-4.23828			4.84653			502131.00000
-4.23828			4.81426			502232.00000
-4.23828			4.79126			502331.00000
-4.23828			4.77477			502431.00000
-4.23828			4.75991			502532.00000
-4.23828			4.73654			502631.00000
-4.23828			4.72658			502731.00000
-4.23828			4.71842			502832.00000
-0.00732			0.13449			503938.00000
-0.00732			-0.12970			504039.00000
-0.00732			-0.13312			504139.00000
-0.00732			-0.11771			504240.00000
-0.00732			-0.10454			504339.00000
-0.00732			-0.09655			504439.00000
-0.00732			-0.08843			504540.00000
-0.00732			-0.08232			504639.00000
-0.00732			-0.07217			504739.00000
-0.00732			-0.06747			504840.00000
3.98926			-4.16241			505664.00000
3.98926			-4.43636			505765.00000
3.98926			-4.51845			505866.00000
3.98926			-4.47351			505965.00000
3.98926			-4.45338			506065.00000
3.98926			-4.43704			506166.00000
3.98926			-4.42337			506265.00000
3.98926			-4.41160			506365.00000
3.98926			-4.40240			506466.00000
3.98926			-4.39340			506565.00000
-3.99170			4.28587			508359.00000
-3.99170			4.46802			508460.00000
-3.99170			4.49821			508559.00000
-3.99170			4.46945			508659.00000
-3.99170			4.44660			508760.00000
-3.99170			4.42851			508859.00000
-3.99170			4.40041			508959.00000
-3.99170			4.39035			509060.00000
-3.99170			4.38085			509159.00000
-3.99170			4.37158			509259.00000
-0.00732			0.11969			510355.00000
-0.00732			-0.12040			510455.00000
-0.00732			-0.12261			510556.00000
-0.00732			-0.10869			510655.00000
-0.00732			-0.09766			510755.00000
-0.00732			-0.08667			510856.00000
-0.00732			-0.08054			510955.00000
-0.00732			-0.07378			511055.00000
-0.00732			-0.06227			511156.00000
-0.00732			-0.05761			511255.00000
3.74268			-3.90898			512068.00000
3.74268			-4.10764			512170.00000
3.74268			-4.14889			512269.00000
3.74268			-4.12793			512369.00000
3.74268			-4.10493			512470.00000
3.74268			-4.07208			512569.00000
3.74268			-4.06069			512669.00000
3.74268			-4.05086			512770.00000
3.74268			-4.04048			512869.00000
3.74268			-4.03164			512969.00000
-3.74268			3.85719			514733.00000
-3.74268			4.09313			514834.00000
-3.74268			4.16331			514934.00000
-3.74268			4.11809			515035.00000
-3.74268			4.09977			515134.00000
-3.74268			4.08572			515234.00000
-3.74268			4.07488			515335.00000
-3.74268			4.06465			515434.00000
-3.74268			4.05515			515534.00000
-3.74268			4.04623			515635.00000
-0.00732			-0.00925			516705.00000
-0.00732			-0.09660			516806.00000
-0.00732			-0.10794			516907.00000
-0.00732			-0.09466			517006.00000
-0.00732			-0.08174			517106.00000
-0.00732			-0.07327			517207.00000
-0.00732			-0.06636			517306.00000
-0.00732			-0.05623			517406.00000
-0.00732			-0.05055			517507.00000
-0.00732			-0.04650			517606.00000
3.49121			-3.58675			518395.00000
3.49121			-3.76651			518496.00000
3.49121			-3.79705			518595.00000
3.49121			-3.77430			518695.00000
3.49121			-3.75201			518796.00000
3.49121			-3.73469			518895.00000
3.49121			-3.71240			518995.00000
3.49121			-3.70204			519096.00000
3.49121			-3.69367			519195.00000
3.49121			-3.68563			519296.00000
-3.49121			3.70148			521015.00000
-3.49121			3.82886			521116.00000
-3.49121			3.83678			521217.00000
-3.49121			3.80961			521316.00000
-3.49121			3.78890			521416.00000
-3.49121			3.77442			521517.00000
-3.49121			3.76303			521616.00000
-3.49121			3.74318			521716.00000
-3.49121			3.73438			521817.00000
-3.49121			3.72654			521916.00000
-0.00732			0.02727			522969.00000
-0.00732			-0.07807			523069.00000
-0.00732			-0.09788			523169.00000
-0.00732			-0.08466			523270.00000
-0.00732			-0.07483			523369.00000
-0.00732			-0.06583			523469.00000
-0.00732			-0.05151			523570.00000
-0.00732			-0.04759			523669.00000
-0.00732			-0.04321			523769.00000
-0.00732			-0.03889			523870.00000
3.24219			-3.27012			524634.00000
3.24219			-3.44036			524735.00000
3.24219			-3.46638			524835.00000
3.24219			-3.44503			524936.00000
3.24219			-3.42551			525035.00000
3.24219			-3.41108			525135.00000
3.24219			-3.38946			525236.00000
3.24219			-3.38014			525335.00000
3.24219			-3.37217			525435.00000
3.24219			-3.36423			525536.00000
-3.24219			3.33006			527189.00000
-3.24219			3.50361			527288.00000
-3.24219			3.53340			527388.00000
-3.24219			3.50927			527489.00000
-3.24219			3.48831			527588.00000
-3.24219			3.47297			527688.00000
-3.24219			3.45131			527789.00000
-3.24219			3.44264			527888.00000
-3.24219			3.43550			527988.00000
-3.24219			3.42746			528089.00000
-0.00732			0.02812			529110.00000
-0.00732			-0.06910			529210.00000
-0.00732			-0.08539			529310.00000
-0.00732			-0.07410			529411.00000
-0.00732			-0.06309			529510.00000
-0.00732			-0.05530			529610.00000
-0.00732			-0.04774			529711.00000
-0.00732			-0.03803			529810.00000
-0.00732			-0.03447			529910.00000
-0.00732			-0.03112			530011.00000
2.98828			-2.78612			530744.00000
2.98828			-3.05718			530845.00000
2.98828			-3.14387			530946.00000
2.98828			-3.11396			531045.00000
2.98828			-3.09842			531145.00000
2.98828			-3.08598			531246.00000
2.98828			-3.07575			531345.00000
2.98828			-3.06668			531445.00000
2.98828			-3.05858			531546.00000
2.98828			-3.05205			531645.00000
-2.99072			3.05475			533250.00000
-2.99072			3.20770			533351.00000
-2.99072			3.22881			533451.00000
-2.99072			3.20436			533552.00000
-2.99072			3.18518			533651.00000
-2.99072			3.17186			533751.00000
-2.99072			3.16195			533852.00000
-2.99072			3.14336			533951.00000
-2.99072			3.13614			534051.00000
-2.99072			3.13003			534152.00000
-0.00732			0.17325			535143.00000
-0.00732			-0.01338			535243.00000
-0.00732			-0.07513			535344.00000
-0.00732			-0.06332			535443.00000
-0.00732			-0.05367			535543.00000
-0.00732			-0.04580			535644.00000
-0.00732			-0.04095			535743.00000
-0.00732			-0.03623			535843.00000
-0.00732			-0.03233			535944.00000
-0.00732			-0.02853			536043.00000
2.73926			-2.69669			536759.00000
2.73926			-2.82898			536859.00000
2.73926			-2.84097			536960.00000
2.73926			-2.82161			537059.00000
2.73926			-2.80550			537159.00000
2.73926			-2.79225			537260.00000
2.73926			-2.78207			537359.00000
2.73926			-2.76584			537459.00000
2.73926			-2.75958			537560.00000
2.73926			-2.75377			537659.00000
-2.74170			2.81489			539221.00000
-2.74170			2.93287			539322.00000
-2.74170			2.94109			539422.00000
-2.74170			2.91970			539523.00000
-2.74170			2.90231			539622.00000
-2.74170			2.88964			539722.00000
-2.74170			2.87878			539823.00000
-2.74170			2.87056			539922.00000
-2.74170			2.85850			540022.00000
-2.74170			2.85196			540123.00000
-0.00732			0.10237			541095.00000
-0.00732			-0.03150			541197.00000
-0.00732			-0.06227			541296.00000
-0.00732			-0.05525			541397.00000
-0.00732			-0.04550			541496.00000
-0.00732			-0.03127			541596.00000
-0.00732			-0.02697			541697.00000
-0.00732			-0.02097			541796.00000
-0.00732			-0.01820			541896.00000
-0.00732			-0.01491			541997.00000
2.49268			-2.29858			542693.00000
2.49268			-2.49440			542793.00000
2.49268			-2.54548			542894.00000
2.49268			-2.53198			542993.00000
2.49268			-2.50137			543093.00000
2.49268			-2.49096			543194.00000
2.49268			-2.48219			543293.00000
2.49268			-2.47477			543393.00000
2.49268			-2.46894			543494.00000
2.49268			-2.46341			543593.00000
-2.49268			2.29035			545112.00000
-2.49268			2.66114			545213.00000
-2.49268			2.66353			545313.00000
-2.49268			2.64244			545414.00000
-2.49268			2.62786			545513.00000
-2.49268			2.61620			545613.00000
-2.49268			2.60662			545714.00000
-2.49268			2.59830			545813.00000
-2.49268			2.58556			545913.00000
-2.49268			2.58171			546014.00000
-0.00732			0.06389			546962.00000
-0.00732			-0.03776			547063.00000
-0.00732			-0.05178			547164.00000
-0.00732			-0.04165			547263.00000
-0.00732			-0.03321			547363.00000
-0.00732			-0.02471			547464.00000
-0.00732			-0.01956			547563.00000
-0.00732			-0.01705			547663.00000
-0.00732			-0.00900			547764.00000
-0.00732			-0.00777			547863.00000
2.24121			-1.89984			548517.00000
2.24121			-2.16204			548619.00000
2.24121			-2.25439			548718.00000
2.24121			-2.23780			548818.00000
2.24121			-2.22405			548919.00000
2.24121			-2.21385			549018.00000
2.24121			-2.20442			549118.00000
2.24121			-2.19696			549219.00000
2.24121			-2.19009			549318.00000
2.24121			-2.18565			549419.00000
-2.24121			2.12815			550876.00000
-2.24121			2.34203			550977.00000
-2.24121			2.40230			551077.00000
-2.24121			2.38785			551178.00000
-2.24121			2.36065			551277.00000
-2.24121			2.35110			551377.00000
-2.24121			2.34265			551478.00000
-2.24121			2.33594			551577.00000
-2.24121			2.32845			551677.00000
-2.24121			2.32285			551778.00000
-0.00732			0.11672			552689.00000
-0.00732			-0.01358			552791.00000
-0.00732			-0.03947			552890.00000
-0.00732			-0.03012			552990.00000
-0.00732			-0.02248			553091.00000
-0.00732			-0.01672			553190.00000
-0.00732			-0.01096			553290.00000
-0.00732			-0.00282			553391.00000
-0.00732			-0.00023			553490.00000
-0.00732			0.00186			553590.00000
1.99219			-1.69270			554227.00000
1.99219			-1.91441			554328.00000
1.99219			-1.97949			554427.00000
1.99219			-1.95782			554527.00000
1.99219			-1.94701			554628.00000
1.99219			-1.93686			554727.00000
1.99219			-1.92982			554827.00000
1.99219			-1.92389			554928.00000
1.99219			-1.91690			555027.00000
1.99219			-1.91245			555127.00000
-1.99219			1.81228			556536.00000
-1.99219			2.13873			556638.00000
-1.99219			2.13780			556737.00000
-1.99219			2.11815			556837.00000
-1.99219			2.10598			556938.00000
-1.99219			2.09708			557037.00000
-1.99219			2.08831			557137.00000
-1.99219			2.08163			557238.00000
-1.99219			2.07647			557337.00000
-1.99219			2.06695			557437.00000
-0.00732			0.14746			558325.00000
-0.00732			0.00570			558427.00000
-0.00732			-0.02522			558526.00000
-0.00732			-0.01815			558626.00000
-0.00732			-0.01039			558727.00000
-0.00732			-0.00350			558826.00000
-0.00732			0.00668			558926.00000
-0.00732			0.01015			559027.00000
-0.00732			0.01241			559126.00000
-0.00732			0.01395			559226.00000
1.74072			-1.49421			559826.00000
1.74072			-1.67221			559927.00000
1.74072			-1.71255			560026.00000
1.74072			-1.70019			560126.00000
1.74072			-1.68697			560227.00000
1.74072			-1.67706			560326.00000
1.74072			-1.66402			560427.00000
1.74072			-1.65743			560526.00000
1.74072			-1.65133			560626.00000
1.74072			-1.64685			560727.00000
-1.73828			1.56578			562063.00000
-1.73828			1.80454			562163.00000
-1.73828			1.88605			562264.00000
-1.73828			1.86587			562363.00000
-1.73828			1.85493			562463.00000
-1.73828			1.84664			562564.00000
-1.73828			1.83890			562663.00000
-1.73828			1.83276			562763.00000
-1.73828			1.82708			562864.00000
-1.73828			1.82178			562963.00000
-0.00732			0.30541			563827.00000
-0.00732			0.07867			563928.00000
-0.00732			-0.00850			564027.00000
-0.00732			-0.00139			564127.00000
-0.00732			0.00497			564228.00000
-0.00732			0.00897			564327.00000
-0.00732			0.01503			564427.00000
-0.00732			0.01787			564528.00000
-0.00732			0.02043			564627.00000
-0.00732			0.02372			564727.00000
1.49170			-1.19435			565297.00000
1.49170			-1.39570			565398.00000
1.49170			-1.45077			565498.00000
1.49170			-1.44203			565599.00000
1.49170			-1.42129			565698.00000
1.49170			-1.41460			565798.00000
1.49170			-1.40895			565899.00000
1.49170			-1.40400			565998.00000
1.49170			-1.39910			566098.00000
1.49170			-1.39532			566199.00000
-1.49414			1.46119			567474.00000
-1.49414			1.61419			567574.00000
-1.49414			1.64058			567674.00000
-1.49414			1.62457			567775.00000
-1.49414			1.61203			567874.00000
-1.49414			1.60396			567974.00000
-1.49414			1.59137			568075.00000
-1.49414			1.58632			568174.00000
-1.49414			1.58099			568274.00000
-1.49414			1.57699			568375.00000
-0.00732			0.37843			569201.00000
-0.00732			0.11509			569302.00000
-0.00732			0.00540			569401.00000
-0.00732			0.01334			569501.00000
-0.00732			0.01877			569601.00000
-0.00732			0.02410			569701.00000
-0.00732			0.02915			569801.00000
-0.00732			0.03144			569902.00000
-0.00732			0.03363			570001.00000
-0.00732			0.03787			570101.00000
1.24268			-1.00606			570641.00000
1.24268			-1.16190			570741.00000
1.24268			-1.19337			570842.00000
1.24268			-1.18389			570941.00000
1.24268			-1.17401			571041.00000
1.24268			-1.16738			571142.00000
1.24268			-1.15541			571241.00000
1.24268			-1.15146			571341.00000
1.24268			-1.14772			571442.00000
1.24268			-1.14390			571541.00000
-1.24268			1.22254			572749.00000
-1.24268			1.37058			572850.00000
-1.24268			1.39466			572950.00000
-1.24268			1.38071			573050.00000
-1.24268			1.37119			573151.00000
-1.24268			1.36412			573250.00000
-1.24268			1.35236			573350.00000
-1.24268			1.34841			573451.00000
-1.24268			1.34381			573550.00000
-1.24268			1.34095			573650.00000
-0.00732			0.28485			574447.00000
-0.00732			0.08417			574547.00000
-0.00732			0.02473			574648.00000
-0.00732			0.02516			574747.00000
-0.00732			0.03634			574848.00000
-0.00732			0.04069			574947.00000
-0.00732			0.04270			575047.00000
-0.00732			0.04511			575148.00000
-0.00732			0.04891			575247.00000
-0.00732			0.05117			575347.00000
0.99121			-0.70436			575850.00000
0.99121			-0.89202			575950.00000
0.99121			-0.93840			576051.00000
0.99121			-0.93158			576150.00000
0.99121			-0.92234			576250.00000
0.99121			-0.91014			576351.00000
0.99121			-0.90552			576450.00000
0.99121			-0.90155			576550.00000
0.99121			-0.89986			576651.00000
0.99121			-0.89655			576750.00000
-0.99121			0.87276			577879.00000
-0.99121			1.08377			577980.00000
-0.99121			1.14527			578080.00000
-0.99121			1.13766			578181.00000
-0.99121			1.12079			578280.00000
-0.99121			1.11436			578380.00000
-0.99121			1.11008			578481.00000
-0.99121			1.10719			578580.00000
-0.99121			1.10242			578680.00000
-0.99121			1.09917			578781.00000
-0.00732			0.27578			579533.00000
-0.00732			0.09030			579635.00000
-0.00732			0.04280			579734.00000
-0.00732			0.04499			579834.00000
-0.00732			0.04891			579935.00000
-0.00732			0.05451			580034.00000
-0.00732			0.06268			580134.00000
-0.00732			0.06434			580235.00000
-0.00732			0.06452			580334.00000
-0.00732			0.06597			580434.00000
0.73975			-0.34169			580888.00000
0.73975			-0.59193			580988.00000
0.73975			-0.68431			581089.00000
0.73975			-0.68270			581188.00000
0.73975			-0.67581			581288.00000
0.73975			-0.67174			581389.00000
0.73975			-0.66907			581488.00000
0.73975			-0.66473			581589.00000
0.73975			-0.66249			581688.00000
0.73975			-0.66053			581788.00000
-0.73975			0.55083			582827.00000
-0.73975			0.79647			582927.00000
-0.73975			0.89231			583027.00000
-0.73975			0.88455			583128.00000
-0.73975			0.87791			583227.00000
-0.73975			0.87449			583327.00000
-0.73975			0.87030			583428.00000
-0.73975			0.86670			583527.00000
-0.73975			0.86411			583627.00000
-0.73975			0.86049			583728.00000
-0.00732			0.56360			584432.00000
-0.00732			0.09543			584534.00000
-0.00732			0.06344			584633.00000
-0.00732			0.06668			584733.00000
-0.00732			0.07057			584834.00000
-0.00732			0.07397			584933.00000
-0.00732			0.07656			585033.00000
-0.00732			0.07749			585134.00000
-0.00732			0.08088			585233.00000
-0.00732			0.08239			585333.00000
0.48828			-0.08785			585732.00000
0.48828			-0.31351			585832.00000
0.48828			-0.43441			585932.00000
0.48828			-0.42813			586033.00000
0.48828			-0.42260			586132.00000
0.48828			-0.41838			586232.00000
0.48828			-0.41622			586333.00000
0.48828			-0.41355			586432.00000
0.48828			-0.41104			586532.00000
0.48828			-0.41011			586633.00000
-0.48828			0.33608			587567.00000
-0.48828			0.54510			587667.00000
-0.48828			0.63654			587767.00000
-0.48828			0.63337			587868.00000
-0.48828			0.62807			587967.00000
-0.48828			0.62473			588067.00000
-0.48828			0.62158			588168.00000
-0.48828			0.61839			588267.00000
-0.48828			0.61633			588367.00000
-0.48828			0.61538			588468.00000
-0.00732			0.35377			589123.00000
-0.00732			0.15430			589223.00000
-0.00732			0.08912			589325.00000
-0.00732			0.08545			589424.00000
-0.00732			0.08970			589525.00000
-0.00732			0.09350			589624.00000
-0.00732			0.09352			589724.00000
-0.00732			0.09438			589825.00000
-0.00732			0.09659			589924.00000
-0.00732			0.09792			590024.00000
0.24170			0.02661			590356.00000
0.24170			-0.10532			590456.00000
0.24170			-0.16939			590557.00000
0.24170			-0.17120			590656.00000
0.24170			-0.16813			590756.00000
0.24170			-0.16484			590857.00000
0.24170			-0.16193			590956.00000
0.24170			-0.16140			591056.00000
0.24170			-0.16017			591157.00000
0.24170			-0.15911			591256.00000
-0.24170			0.14384			592051.00000
-0.24170			0.27899			592151.00000
-0.24170			0.36727			592251.00000
-0.24170			0.37448			592352.00000
-0.24170			0.36797			592451.00000
-0.24170			0.36541			592551.00000
-0.24170			0.36332			592652.00000
-0.24170			0.36314			592751.00000
-0.24170			0.36201			592851.00000
-0.24170			0.36008			592952.00000
-0.00732			0.31765			593534.00000
-0.00732			0.20211			593635.00000
-0.00732			0.11984			593734.00000
-0.00732			0.10767			593835.00000
-0.00732			0.11084			593934.00000
-0.00732			0.11154			594034.00000
-0.00732			0.11144			594135.00000
-0.00732			0.11278			594234.00000
-0.00732			0.11290			594334.00000
-0.00732			0.11320			594435.00000
