# Acquired on 26/08/2024 16:14:21 
# SPIDER: CNT0771454D-1_PostRodaggio_2024-08-26
# TRACKING MEASUREMENT

  # pos [mm]    force [N]     time [ms]
     0.49072     -0.10197     248.00000
     0.49072     -0.40500     349.00000
     0.49072     -0.58765     448.00000
     0.49072     -0.57147     548.00000
     0.49072     -0.56234     649.00000
     0.49072     -0.55758     748.00000
     0.49072     -0.55304     848.00000
     0.49072     -0.54861     949.00000
     0.49072     -0.54580    1048.00000
     0.49072     -0.53916    1149.00000
    -0.49072      0.54256    1966.00000
    -0.49072      0.87974    2067.00000
    -0.49072      1.02530    2167.00000
    -0.49072      1.02101    2268.00000
    -0.49072      1.00955    2367.00000
    -0.49072      0.99556    2467.00000
    -0.49072      0.99153    2568.00000
    -0.49072      0.98751    2667.00000
    -0.49072      0.98451    2767.00000
    -0.49072      0.98094    2868.00000
    -0.00488      0.77830    3468.00000
    -0.00488      0.32344    3569.00000
    -0.00488      0.08101    3670.00000
    -0.00488      0.06118    3769.00000
    -0.00488      0.07385    3869.00000
    -0.00488      0.07715    3970.00000
    -0.00488      0.07952    4069.00000
    -0.00488      0.08249    4169.00000
    -0.00488      0.08476    4270.00000
    -0.00488      0.08630    4369.00000
     0.99121     -0.54010    4773.00000
     0.99121     -0.96467    4875.00000
     0.99121     -1.07790    4974.00000
     0.99121     -1.06504    5075.00000
     0.99121     -1.03883    5174.00000
     0.99121     -1.03086    5274.00000
     0.99121     -1.02497    5375.00000
     0.99121     -1.02014    5474.00000
     0.99121     -1.01403    5574.00000
     0.99121     -1.00920    5675.00000
    -0.99121      1.03749    6626.00000
    -0.99121      1.52922    6726.00000
    -0.99121      1.72222    6827.00000
    -0.99121      1.70350    6926.00000
    -0.99121      1.69166    7026.00000
    -0.99121      1.68229    7127.00000
    -0.99121      1.67575    7226.00000
    -0.99121      1.66981    7326.00000
    -0.99121      1.66400    7427.00000
    -0.99121      1.65868    7526.00000
    -0.00488      0.80969    8189.00000
    -0.00488      0.20771    8290.00000
    -0.00488      0.03106    8390.00000
    -0.00488      0.02676    8491.00000
    -0.00488      0.04794    8590.00000
    -0.00488      0.05218    8690.00000
    -0.00488      0.05591    8791.00000
    -0.00488      0.06056    8890.00000
    -0.00488      0.06388    8990.00000
    -0.00488      0.06556    9091.00000
     1.49170     -0.69430    9549.00000
     1.49170     -1.57671    9651.00000
     1.49170     -1.60597    9750.00000
     1.49170     -1.58214    9850.00000
     1.49170     -1.56612    9951.00000
     1.49170     -1.55499   10050.00000
     1.49170     -1.54559   10150.00000
     1.49170     -1.53791   10251.00000
     1.49170     -1.52657   10350.00000
     1.49170     -1.52084   10451.00000
    -1.49170      1.86521   11511.00000
    -1.49170      2.31893   11613.00000
    -1.49170      2.42759   11712.00000
    -1.49170      2.40765   11812.00000
    -1.49170      2.38704   11913.00000
    -1.49170      2.36318   12012.00000
    -1.49170      2.35311   12112.00000
    -1.49170      2.34514   12213.00000
    -1.49170      2.33887   12312.00000
    -1.49170      2.33249   12413.00000
    -0.00488      1.03441   13128.00000
    -0.00488      0.01898   13230.00000
    -0.00488     -0.00979   13329.00000
    -0.00488      0.00607   13428.00000
    -0.00488      0.01741   13530.00000
    -0.00488      0.02474   13629.00000
    -0.00488      0.03087   13729.00000
    -0.00488      0.03660   13830.00000
    -0.00488      0.04046   13929.00000
    -0.00488      0.04637   14029.00000
     1.99463     -1.29664   14532.00000
     1.99463     -2.16980   14633.00000
     1.99463     -2.18426   14732.00000
     1.99463     -2.15835   14832.00000
     1.99463     -2.14171   14933.00000
     1.99463     -2.12850   15032.00000
     1.99463     -2.11777   15132.00000
     1.99463     -2.10845   15233.00000
     1.99463     -2.09275   15332.00000
     1.99463     -2.08568   15432.00000
    -1.99463      2.61072   16579.00000
    -1.99463      3.06742   16681.00000
    -1.99463      3.15692   16780.00000
    -1.99463      3.12964   16880.00000
    -1.99463      3.10770   16981.00000
    -1.99463      3.09125   17080.00000
    -1.99463      3.06510   17180.00000
    -1.99463      3.05540   17281.00000
    -1.99463      3.04691   17380.00000
    -1.99463      3.03830   17480.00000
    -0.00488      0.40381   18246.00000
    -0.00488      0.03203   18347.00000
    -0.00488     -0.04383   18446.00000
    -0.00488     -0.03029   18546.00000
    -0.00488     -0.01490   18647.00000
    -0.00488     -0.00420   18746.00000
    -0.00488      0.00982   18846.00000
    -0.00488      0.01277   18947.00000
    -0.00488      0.01830   19046.00000
    -0.00488      0.02349   19146.00000
     2.49268     -1.99572   19680.00000
     2.49268     -2.61701   19780.00000
     2.49268     -2.82752   19881.00000
     2.49268     -2.79180   19980.00000
     2.49268     -2.77216   20080.00000
     2.49268     -2.75782   20181.00000
     2.49268     -2.74572   20280.00000
     2.49268     -2.73496   20380.00000
     2.49268     -2.72573   20481.00000
     2.49268     -2.71662   20580.00000
    -2.49512      2.87118   21788.00000
    -2.49512      3.62996   21890.00000
    -2.49512      3.90876   21989.00000
    -2.49512      3.87464   22089.00000
    -2.49512      3.85284   22190.00000
    -2.49512      3.83552   22289.00000
    -2.49512      3.82131   22389.00000
    -2.49512      3.80883   22490.00000
    -2.49512      3.79670   22589.00000
    -2.49512      3.77825   22689.00000
    -0.00488      0.28343   23486.00000
    -0.00488     -0.02500   23587.00000
    -0.00488     -0.07511   23688.00000
    -0.00488     -0.05615   23787.00000
    -0.00488     -0.03899   23887.00000
    -0.00488     -0.02848   23988.00000
    -0.00488     -0.02089   24087.00000
    -0.00488     -0.00690   24187.00000
    -0.00488     -0.00166   24288.00000
    -0.00488      0.00320   24387.00000
     2.99072     -2.40581   24963.00000
     2.99072     -3.50706   25064.00000
     2.99072     -3.53332   25164.00000
     2.99072     -3.49966   25265.00000
     2.99072     -3.47578   25364.00000
     2.99072     -3.45638   25464.00000
     2.99072     -3.44050   25565.00000
     2.99072     -3.42799   25664.00000
     2.99072     -3.40881   25764.00000
     2.99072     -3.39987   25865.00000
    -2.99316      4.29759   27158.00000
    -2.99316      4.67872   27258.00000
    -2.99316      4.71246   27359.00000
    -2.99316      4.67081   27458.00000
    -2.99316      4.64349   27558.00000
    -2.99316      4.62272   27659.00000
    -2.99316      4.60486   27758.00000
    -2.99316      4.57598   27859.00000
    -2.99316      4.56450   27958.00000
    -2.99316      4.55399   28058.00000
    -0.00488      0.68305   28898.00000
    -0.00488     -0.09038   28998.00000
    -0.00488     -0.10102   29099.00000
    -0.00488     -0.07898   29198.00000
    -0.00488     -0.06304   29297.00000
    -0.00488     -0.05126   29399.00000
    -0.00488     -0.04256   29498.00000
    -0.00488     -0.03416   29598.00000
    -0.00488     -0.02203   29699.00000
    -0.00488     -0.01800   29798.00000
     3.49365     -3.84192   30410.00000
     3.49365     -4.24526   30512.00000
     3.49365     -4.30299   30611.00000
     3.49365     -4.26519   30711.00000
     3.49365     -4.23632   30812.00000
     3.49365     -4.21478   30911.00000
     3.49365     -4.18082   31011.00000
     3.49365     -4.16832   31112.00000
     3.49365     -4.15684   31211.00000
     3.49365     -4.14584   31311.00000
    -3.49365      5.08741   32685.00000
    -3.49365      5.50218   32785.00000
    -3.49365      5.54862   32885.00000
    -3.49365      5.50331   32986.00000
    -3.49365      5.47035   33085.00000
    -3.49365      5.44626   33185.00000
    -3.49365      5.40919   33286.00000
    -3.49365      5.39168   33385.00000
    -3.49365      5.37872   33485.00000
    -3.49365      5.36745   33586.00000
    -0.00488      0.26317   34467.00000
    -0.00488     -0.06590   34568.00000
    -0.00488     -0.13636   34667.00000
    -0.00488     -0.11758   34767.00000
    -0.00488     -0.08089   34868.00000
    -0.00488     -0.06998   34967.00000
    -0.00488     -0.06066   35067.00000
    -0.00488     -0.05353   35167.00000
    -0.00488     -0.04742   35267.00000
    -0.00488     -0.04088   35368.00000
     3.99170     -4.69965   36002.00000
     3.99170     -5.07949   36104.00000
     3.99170     -5.11307   36203.00000
     3.99170     -5.07050   36303.00000
     3.99170     -5.03816   36404.00000
     3.99170     -5.01376   36503.00000
     3.99170     -4.99569   36603.00000
     3.99170     -4.96400   36703.00000
     3.99170     -4.94966   36803.00000
     3.99170     -4.93798   36904.00000
    -3.99170      5.63709   38319.00000
    -3.99170      6.27536   38419.00000
    -3.99170      6.42216   38519.00000
    -3.99170      6.37821   38620.00000
    -3.99170      6.30434   38719.00000
    -3.99170      6.27957   38819.00000
    -3.99170      6.25899   38920.00000
    -3.99170      6.24140   39019.00000
    -3.99170      6.22470   39119.00000
    -3.99170      6.20912   39220.00000
    -0.00488      0.06261   40119.00000
    -0.00488     -0.14400   40219.00000
    -0.00488     -0.15759   40320.00000
    -0.00488     -0.13163   40419.00000
    -0.00488     -0.11250   40519.00000
    -0.00488     -0.09883   40620.00000
    -0.00488     -0.08778   40719.00000
    -0.00488     -0.06998   40819.00000
    -0.00488     -0.06290   40920.00000
    -0.00488     -0.05518   41019.00000
     4.49463     -5.61434   41698.00000
     4.49463     -5.94674   41799.00000
     4.49463     -5.96797   41900.00000
     4.49463     -5.92032   41999.00000
     4.49463     -5.88622   42099.00000
     4.49463     -5.86102   42200.00000
     4.49463     -5.83900   42299.00000
     4.49463     -5.80450   42399.00000
     4.49463     -5.78851   42500.00000
     4.49463     -5.77516   42599.00000
    -4.49219      6.80567   44082.00000
    -4.49219      7.25504   44183.00000
    -4.49219      7.31321   44283.00000
    -4.49219      7.25772   44383.00000
    -4.49219      7.21333   44483.00000
    -4.49219      7.15635   44584.00000
    -4.49219      7.13266   44683.00000
    -4.49219      7.11224   44783.00000
    -4.49219      7.09498   44884.00000
    -4.49219      7.08036   44983.00000
    -0.00488      0.07474   45901.00000
    -0.00488     -0.15956   46002.00000
    -0.00488     -0.18755   46101.00000
    -0.00488     -0.16097   46201.00000
    -0.00488     -0.13984   46302.00000
    -0.00488     -0.12226   46401.00000
    -0.00488     -0.10988   46501.00000
    -0.00488     -0.09111   46602.00000
    -0.00488     -0.08403   46701.00000
    -0.00488     -0.07865   46801.00000
     4.99268     -6.28375   47505.00000
     4.99268     -6.78975   47606.00000
     4.99268     -6.87317   47707.00000
     4.99268     -6.82349   47806.00000
     4.99268     -6.78143   47906.00000
     4.99268     -6.72543   48007.00000
     4.99268     -6.70390   48106.00000
     4.99268     -6.68420   48206.00000
     4.99268     -6.66699   48307.00000
     4.99268     -6.65203   48406.00000
    -4.99268      7.86016   49932.00000
    -4.99268      8.21757   50032.00000
    -4.99268      8.22684   50133.00000
    -4.99268      8.16603   50232.00000
    -4.99268      8.12313   50332.00000
    -4.99268      8.09011   50433.00000
    -4.99268      8.06132   50532.00000
    -4.99268      8.01415   50632.00000
    -4.99268      7.99553   50733.00000
    -4.99268      7.97732   50832.00000
    -0.00488      0.07579   51799.00000
    -0.00488     -0.17429   51900.00000
    -0.00488     -0.21797   51999.00000
    -0.00488     -0.19225   52101.00000
    -0.00488     -0.16697   52200.00000
    -0.00488     -0.13417   52300.00000
    -0.00488     -0.12450   52401.00000
    -0.00488     -0.11539   52500.00000
    -0.00488     -0.10688   52600.00000
    -0.00488     -0.09889   52701.00000
     5.49316     -6.55429   53421.00000
     5.49316     -7.78578   53522.00000
     5.49316     -7.78500   53622.00000
     5.49316     -7.72902   53723.00000
     5.49316     -7.68958   53822.00000
     5.49316     -7.65770   53922.00000
     5.49316     -7.63004   54023.00000
     5.49316     -7.60624   54122.00000
     5.49316     -7.56952   54222.00000
     5.49316     -7.55394   54323.00000
    -5.49316      8.44980   55914.00000
    -5.49316      9.07158   56015.00000
    -5.49316      9.18966   56116.00000
    -5.49316      9.12788   56215.00000
    -5.49316      9.07309   56315.00000
    -5.49316      9.00064   56416.00000
    -5.49316      8.97316   56515.00000
    -5.49316      8.94777   56616.00000
    -5.49316      8.92632   56715.00000
    -5.49316      8.90703   56815.00000
    -0.00488     -0.08716   57814.00000
    -0.00488     -0.23286   57914.00000
    -0.00488     -0.23175   58014.00000
    -0.00488     -0.20195   58115.00000
    -0.00488     -0.17912   58214.00000
    -0.00488     -0.16186   58314.00000
    -0.00488     -0.14965   58415.00000
    -0.00488     -0.12895   58514.00000
    -0.00488     -0.12055   58614.00000
    -0.00488     -0.11310   58715.00000
     5.99365     -7.53019   59466.00000
     5.99365     -8.76247   59567.00000
     5.99365     -8.75863   59666.00000
     5.99365     -8.69795   59766.00000
     5.99365     -8.65403   59867.00000
     5.99365     -8.61888   59966.00000
     5.99365     -8.58919   60066.00000
     5.99365     -8.56477   60167.00000
     5.99365     -8.52303   60266.00000
     5.99365     -8.50541   60366.00000
    -5.99365      9.06248   61996.00000
    -5.99365      9.90889   62097.00000
    -5.99365     10.13455   62197.00000
    -5.99365     10.06648   62298.00000
    -5.99365     10.01709   62397.00000
    -5.99365      9.97762   62497.00000
    -5.99365      9.94499   62598.00000
    -5.99365      9.91762   62697.00000
    -5.99365      9.86967   62797.00000
    -5.99365      9.84941   62898.00000
    -0.00488      0.14114   63895.00000
    -0.00488     -0.18725   63995.00000
    -0.00488     -0.26517   64096.00000
    -0.00488     -0.24018   64195.00000
    -0.00488     -0.19152   64296.00000
    -0.00488     -0.17469   64395.00000
    -0.00488     -0.16143   64495.00000
    -0.00488     -0.14992   64596.00000
    -0.00488     -0.13998   64695.00000
    -0.00488     -0.13239   64795.00000
     6.49414     -8.87815   65584.00000
     6.49414     -9.60761   65685.00000
     6.49414     -9.75228   65785.00000
     6.49414     -9.69042   65886.00000
     6.49414     -9.64725   65985.00000
     6.49414     -9.61132   66085.00000
     6.49414     -9.58157   66186.00000
     6.49414     -9.55502   66285.00000
     6.49414     -9.52889   66385.00000
     6.49414     -9.48983   66486.00000
    -6.49414     10.61397   68175.00000
    -6.49414     11.12313   68276.00000
    -6.49414     11.19183   68375.00000
    -6.49414     11.11988   68475.00000
    -6.49414     11.05713   68576.00000
    -6.49414     10.97076   68675.00000
    -6.49414     10.93834   68776.00000
    -6.49414     10.90906   68875.00000
    -6.49414     10.88337   68975.00000
    -6.49414     10.86086   69076.00000
    -0.00488      0.02228   70104.00000
    -0.00488     -0.23993   70204.00000
    -0.00488     -0.28948   70304.00000
    -0.00488     -0.25971   70405.00000
    -0.00488     -0.21114   70504.00000
    -0.00488     -0.19431   70604.00000
    -0.00488     -0.18053   70704.00000
    -0.00488     -0.16897   70804.00000
    -0.00488     -0.15843   70904.00000
    -0.00488     -0.14970   71005.00000
     6.99463     -9.75587   71792.00000
     6.99463    -10.61707   71894.00000
     6.99463    -10.81504   71993.00000
     6.99463    -10.74610   72093.00000
     6.99463    -10.69676   72194.00000
     6.99463    -10.65632   72293.00000
     6.99463    -10.62242   72393.00000
     6.99463    -10.59292   72494.00000
     6.99463    -10.56709   72593.00000
     6.99463    -10.52117   72693.00000
    -6.99219     11.08825   74426.00000
    -6.99219     12.00299   74527.00000
    -6.99219     12.22992   74628.00000
    -6.99219     12.15030   74727.00000
    -6.99219     12.09449   74827.00000
    -6.99219     12.05070   74928.00000
    -6.99219     12.01204   75027.00000
    -6.99219     11.97816   75127.00000
    -6.99219     11.94780   75228.00000
    -6.99219     11.89660   75327.00000
    -0.00488     -0.12682   76392.00000
    -0.00488     -0.29459   76493.00000
    -0.00488     -0.30388   76593.00000
    -0.00488     -0.26954   76693.00000
    -0.00488     -0.24331   76793.00000
    -0.00488     -0.22500   76894.00000
    -0.00488     -0.19425   76993.00000
    -0.00488     -0.18234   77093.00000
    -0.00488     -0.17213   77194.00000
    -0.00488     -0.16362   77293.00000
     7.49512    -10.71873   78106.00000
     7.49512    -11.67210   78207.00000
     7.49512    -11.92286   78306.00000
     7.49512    -11.84397   78406.00000
     7.49512    -11.78775   78507.00000
     7.49512    -11.74372   78606.00000
     7.49512    -11.70717   78706.00000
     7.49512    -11.67394   78807.00000
     7.49512    -11.64555   78906.00000
     7.49512    -11.59629   79006.00000
    -7.49512     12.66071   80782.00000
    -7.49512     13.30110   80882.00000
    -7.49512     13.39903   80983.00000
    -7.49512     13.31194   81082.00000
    -7.49512     13.23781   81182.00000
    -7.49512     13.13871   81283.00000
    -7.49512     13.09995   81382.00000
    -7.49512     13.06515   81482.00000
    -7.49512     13.03598   81583.00000
    -7.49512     13.00899   81682.00000
    -0.00488     -0.20020   82765.00000
    -0.00488     -0.32827   82867.00000
    -0.00488     -0.32122   82966.00000
    -0.00488     -0.28681   83066.00000
    -0.00488     -0.26098   83167.00000
    -0.00488     -0.24112   83266.00000
    -0.00488     -0.22332   83366.00000
    -0.00488     -0.19892   83467.00000
    -0.00488     -0.18869   83566.00000
    -0.00488     -0.17964   83667.00000
     7.99316    -11.75909   84497.00000
     7.99316    -12.78132   84597.00000
     7.99316    -13.06026   84698.00000
     7.99316    -12.97519   84797.00000
     7.99316    -12.91408   84897.00000
     7.99316    -12.86410   84998.00000
     7.99316    -12.82220   85097.00000
     7.99316    -12.78789   85197.00000
     7.99316    -12.75660   85298.00000
     7.99316    -12.70198   85397.00000
    -7.99072     13.21963   87210.00000
    -7.99072     14.25864   87311.00000
    -7.99072     14.53319   87411.00000
    -7.99072     14.43964   87512.00000
    -7.99072     14.37326   87611.00000
    -7.99072     14.32212   87711.00000
    -7.99072     14.27928   87812.00000
    -7.99072     14.23956   87911.00000
    -7.99072     14.20398   88011.00000
    -7.99072     14.14728   88112.00000
    -0.00488     -0.00498   89213.00000
    -0.00488     -0.28840   89312.00000
    -0.00488     -0.35675   89412.00000
    -0.00488     -0.29418   89513.00000
    -0.00488     -0.27062   89612.00000
    -0.00488     -0.25128   89712.00000
    -0.00488     -0.23494   89813.00000
    -0.00488     -0.22170   89912.00000
    -0.00488     -0.20997   90012.00000
    -0.00488     -0.20028   90113.00000
     8.49365    -13.12639   90961.00000
     8.49365    -14.05548   91062.00000
     8.49365    -14.29931   91161.00000
     8.49365    -14.14052   91262.00000
     8.49365    -14.07741   91361.00000
     8.49365    -14.02565   91461.00000
     8.49365    -13.98167   91562.00000
     8.49365    -13.94307   91661.00000
     8.49365    -13.90903   91761.00000
     8.49365    -13.87901   91862.00000
    -8.49121     15.24853   93715.00000
    -8.49121     15.80545   93816.00000
    -8.49121     15.83317   93917.00000
    -8.49121     15.72625   94016.00000
    -8.49121     15.64731   94116.00000
    -8.49121     15.58757   94217.00000
    -8.49121     15.49302   94316.00000
    -8.49121     15.45515   94416.00000
    -8.49121     15.42119   94517.00000
    -8.49121     15.38893   94616.00000
    -0.00488     -0.20355   95735.00000
    -0.00488     -0.36175   95837.00000
    -0.00488     -0.36869   95936.00000
    -0.00488     -0.33206   96036.00000
    -0.00488     -0.30150   96137.00000
    -0.00488     -0.27748   96236.00000
    -0.00488     -0.24385   96336.00000
    -0.00488     -0.23137   96437.00000
    -0.00488     -0.21948   96536.00000
    -0.00488     -0.20933   96637.00000
     8.99414    -14.62201   97521.00000
     8.99414    -15.36996   97622.00000
     8.99414    -15.51744   97722.00000
     8.99414    -15.33760   97822.00000
     8.99414    -15.26949   97923.00000
     8.99414    -15.21503   98022.00000
     8.99414    -15.16864   98122.00000
     8.99414    -15.12828   98223.00000
     8.99414    -15.09227   98322.00000
     8.99414    -15.06034   98422.00000
    -8.99414     16.25472  100320.00000
    -8.99414     17.06477  100421.00000
    -8.99414     17.22838  100522.00000
    -8.99414     17.03349  100621.00000
    -8.99414     16.96185  100721.00000
    -8.99414     16.90393  100822.00000
    -8.99414     16.85416  100921.00000
    -8.99414     16.81148  101021.00000
    -8.99414     16.77279  101122.00000
    -8.99414     16.73832  101221.00000
    -0.00488      0.00828  102346.00000
    -0.00488     -0.31242  102448.00000
    -0.00488     -0.37207  102547.00000
    -0.00488     -0.33398  102647.00000
    -0.00488     -0.30685  102748.00000
    -0.00488     -0.28570  102847.00000
    -0.00488     -0.26830  102947.00000
    -0.00488     -0.25414  103048.00000
    -0.00488     -0.23983  103147.00000
    -0.00488     -0.21838  103247.00000
     9.49219    -16.19331  104128.00000
     9.49219    -16.73548  104228.00000
     9.49219    -16.73624  104329.00000
     9.49219    -16.61788  104428.00000
     9.49219    -16.53124  104528.00000
     9.49219    -16.46317  104629.00000
     9.49219    -16.40735  104728.00000
     9.49219    -16.31739  104829.00000
     9.49219    -16.27968  104928.00000
     9.49219    -16.24531  105028.00000
    -9.49219     17.78868  106944.00000
    -9.49219     18.60946  107045.00000
    -9.49219     18.71501  107146.00000
    -9.49219     18.59211  107245.00000
    -9.49219     18.49472  107345.00000
    -9.49219     18.42067  107446.00000
    -9.49219     18.30664  107545.00000
    -9.49219     18.25883  107646.00000
    -9.49219     18.21641  107745.00000
    -9.49219     18.17894  107845.00000
    -0.00488     -0.07701  109002.00000
    -0.00488     -0.35172  109103.00000
    -0.00488     -0.38900  109202.00000
    -0.00488     -0.35221  109302.00000
    -0.00488     -0.32395  109403.00000
    -0.00488     -0.30212  109502.00000
    -0.00488     -0.28440  109602.00000
    -0.00488     -0.26979  109702.00000
    -0.00488     -0.25631  109802.00000
    -0.00488     -0.23278  109902.00000
     9.99512    -17.18539  110813.00000
     9.99512    -17.91745  110914.00000
     9.99512    -18.02233  111014.00000
     9.99512    -17.89927  111115.00000
     9.99512    -17.71314  111214.00000
     9.99512    -17.64941  111315.00000
     9.99512    -17.59508  111414.00000
     9.99512    -17.54818  111514.00000
     9.99512    -17.50590  111615.00000
     9.99512    -17.46765  111714.00000
    -9.99268     19.28984  113697.00000
    -9.99268     20.18145  113798.00000
    -9.99268     20.32955  113897.00000
    -9.99268     20.20615  113997.00000
    -9.99268     20.09630  114098.00000
    -9.99268     19.94796  114197.00000
    -9.99268     19.88958  114297.00000
    -9.99268     19.83798  114398.00000
    -9.99268     19.79284  114497.00000
    -9.99268     19.75256  114597.00000
    -0.00488     -0.30491  115790.00000
    -0.00488     -0.43250  115891.00000
    -0.00488     -0.43026  115990.00000
    -0.00488     -0.39117  116090.00000
    -0.00488     -0.35845  116191.00000
    -0.00488     -0.31344  116290.00000
    -0.00488     -0.29602  116390.00000
    -0.00488     -0.28119  116490.00000
    -0.00488     -0.26960  116590.00000
    -0.00488     -0.25909  116691.00000
    10.49316    -18.69844  117631.00000
    10.49316    -19.22929  117732.00000
    10.49316    -19.24505  117832.00000
    10.49316    -19.10735  117933.00000
    10.49316    -18.99853  118032.00000
    10.49316    -18.84846  118132.00000
    10.49316    -18.79024  118233.00000
    10.49316    -18.73880  118332.00000
    10.49316    -18.69490  118432.00000
    10.49316    -18.65470  118533.00000
   -10.49072     21.00361  120533.00000
   -10.49072     21.91430  120634.00000
   -10.49072     22.06486  120734.00000
   -10.49072     21.93129  120835.00000
   -10.49072     21.72479  120934.00000
   -10.49072     21.65125  121034.00000
   -10.49072     21.58663  121135.00000
   -10.49072     21.53103  121234.00000
   -10.49072     21.48216  121334.00000
   -10.49072     21.43810  121435.00000
    -0.00488     -0.26646  122608.00000
    -0.00488     -0.44625  122710.00000
    -0.00488     -0.45657  122809.00000
    -0.00488     -0.41321  122909.00000
    -0.00488     -0.37855  123010.00000
    -0.00488     -0.35153  123109.00000
    -0.00488     -0.31244  123209.00000
    -0.00488     -0.29656  123310.00000
    -0.00488     -0.28235  123409.00000
    -0.00488     -0.27043  123508.00000
    10.99365    -19.90805  124457.00000
    10.99365    -20.49615  124557.00000
    10.99365    -20.50188  124657.00000
    10.99365    -20.34492  124758.00000
    10.99365    -20.22381  124857.00000
    10.99365    -20.05729  124957.00000
    10.99365    -19.99402  125058.00000
    10.99365    -19.93853  125157.00000
    10.99365    -19.88887  125257.00000
    10.99365    -19.84373  125358.00000
   -10.99121     23.24742  127413.00000
   -10.99121     23.93562  127513.00000
   -10.99121     23.92659  127614.00000
   -10.99121     23.76855  127713.00000
   -10.99121     23.65201  127813.00000
   -10.99121     23.56027  127914.00000
   -10.99121     23.48424  128013.00000
   -10.99121     23.36021  128113.00000
   -10.99121     23.30821  128214.00000
   -10.99121     23.26140  128313.00000
    -0.00488     -0.34629  129530.00000
    -0.00488     -0.47683  129632.00000
    -0.00488     -0.47399  129731.00000
    -0.00488     -0.43169  129832.00000
    -0.00488     -0.39625  129931.00000
    -0.00488     -0.37009  130031.00000
    -0.00488     -0.33135  130132.00000
    -0.00488     -0.31461  130231.00000
    -0.00488     -0.30156  130331.00000
    -0.00488     -0.29002  130432.00000
    10.99121    -19.71514  131378.00000
    10.99121    -20.35394  131478.00000
    10.99121    -20.39006  131578.00000
    10.99121    -20.23804  131679.00000
    10.99121    -20.11848  131778.00000
    10.99121    -19.95763  131878.00000
    10.99121    -19.89460  131979.00000
    10.99121    -19.83997  132078.00000
    10.99121    -19.79159  132179.00000
    10.99121    -19.74804  132278.00000
   -10.99121     23.05543  134334.00000
   -10.99121     23.80316  134434.00000
   -10.99121     23.82175  134535.00000
   -10.99121     23.66535  134634.00000
   -10.99121     23.54913  134734.00000
   -10.99121     23.46061  134835.00000
   -10.99121     23.38599  134934.00000
   -10.99121     23.26374  135034.00000
   -10.99121     23.21258  135135.00000
   -10.99121     23.16606  135234.00000
    -0.00488     -0.35108  136451.00000
    -0.00488     -0.48912  136551.00000
    -0.00488     -0.48921  136652.00000
    -0.00488     -0.44590  136753.00000
    -0.00488     -0.41091  136852.00000
    -0.00488     -0.36112  136952.00000
    -0.00488     -0.34227  137053.00000
    -0.00488     -0.32644  137152.00000
    -0.00488     -0.31309  137252.00000
    -0.00488     -0.30018  137353.00000
    10.49316    -18.36356  138293.00000
    10.49316    -18.90135  138394.00000
    10.49316    -18.92586  138495.00000
    10.49316    -18.79343  138594.00000
    10.49316    -18.68693  138694.00000
    10.49316    -18.54251  138795.00000
    10.49316    -18.48640  138894.00000
    10.49316    -18.43823  138994.00000
    10.49316    -18.39441  139095.00000
    10.49316    -18.35548  139194.00000
   -10.49072     20.66244  141195.00000
   -10.49072     21.59079  141296.00000
   -10.49072     21.75496  141397.00000
   -10.49072     21.62842  141496.00000
   -10.49072     21.42489  141596.00000
   -10.49072     21.35408  141697.00000
   -10.49072     21.29343  141796.00000
   -10.49072     21.23926  141896.00000
   -10.49072     21.19118  141997.00000
   -10.49072     21.14976  142096.00000
    -0.00488     -0.30593  143270.00000
    -0.00488     -0.48178  143371.00000
    -0.00488     -0.48937  143471.00000
    -0.00488     -0.44406  143572.00000
    -0.00488     -0.40908  143671.00000
    -0.00488     -0.38204  143771.00000
    -0.00488     -0.33894  143872.00000
    -0.00488     -0.32387  143971.00000
    -0.00488     -0.31082  144071.00000
    -0.00488     -0.29794  144172.00000
     9.99512    -16.17313  145081.00000
     9.99512    -17.60532  145182.00000
     9.99512    -17.54097  145283.00000
     9.99512    -17.41951  145382.00000
     9.99512    -17.33263  145482.00000
     9.99512    -17.26506  145583.00000
     9.99512    -17.20857  145682.00000
     9.99512    -17.15938  145782.00000
     9.99512    -17.07922  145883.00000
     9.99512    -17.04483  145982.00000
    -9.99268     18.18005  147966.00000
    -9.99268     19.48986  148066.00000
    -9.99268     19.84706  148166.00000
    -9.99268     19.72138  148267.00000
    -9.99268     19.63334  148366.00000
    -9.99268     19.56429  148466.00000
    -9.99268     19.50521  148567.00000
    -9.99268     19.45493  148666.00000
    -9.99268     19.40933  148766.00000
    -9.99268     19.33020  148867.00000
    -0.00488     -0.24966  150059.00000
    -0.00488     -0.45409  150159.00000
    -0.00488     -0.45276  150259.00000
    -0.00488     -0.41424  150360.00000
    -0.00488     -0.38533  150459.00000
    -0.00488     -0.36261  150559.00000
    -0.00488     -0.34421  150660.00000
    -0.00488     -0.32833  150759.00000
    -0.00488     -0.31450  150859.00000
    -0.00488     -0.29105  150960.00000
     9.49463    -15.74094  151839.00000
     9.49463    -16.27306  151941.00000
     9.49463    -16.27241  152040.00000
     9.49463    -16.15252  152140.00000
     9.49463    -16.06628  152241.00000
     9.49463    -16.00012  152340.00000
     9.49463    -15.94487  152440.00000
     9.49463    -15.85678  152541.00000
     9.49463    -15.82128  152640.00000
     9.49463    -15.78905  152740.00000
    -9.49219     17.22692  154662.00000
    -9.49219     18.09684  154763.00000
    -9.49219     18.23449  154862.00000
    -9.49219     18.11259  154963.00000
    -9.49219     18.01450  155062.00000
    -9.49219     17.88118  155162.00000
    -9.49219     17.82869  155263.00000
    -9.49219     17.78308  155362.00000
    -9.49219     17.74227  155462.00000
    -9.49219     17.70685  155563.00000
    -0.00488     -0.14190  156712.00000
    -0.00488     -0.41367  156813.00000
    -0.00488     -0.44941  156913.00000
    -0.00488     -0.40989  157014.00000
    -0.00488     -0.38104  157113.00000
    -0.00488     -0.35694  157213.00000
    -0.00488     -0.33835  157314.00000
    -0.00488     -0.32228  157413.00000
    -0.00488     -0.30710  157513.00000
    -0.00488     -0.28405  157613.00000
     8.99414    -14.58922  158498.00000
     8.99414    -15.00515  158600.00000
     8.99414    -14.99785  158699.00000
     8.99414    -14.89246  158799.00000
     8.99414    -14.81361  158900.00000
     8.99414    -14.75320  158999.00000
     8.99414    -14.66240  159099.00000
     8.99414    -14.62558  159199.00000
     8.99414    -14.59197  159299.00000
     8.99414    -14.56177  159400.00000
    -8.99170     16.28571  161290.00000
    -8.99170     16.68791  161391.00000
    -8.99170     16.65652  161492.00000
    -8.99170     16.54346  161591.00000
    -8.99170     16.46482  161691.00000
    -8.99170     16.40433  161792.00000
    -8.99170     16.35260  161891.00000
    -8.99170     16.26723  161991.00000
    -8.99170     16.23278  162092.00000
    -8.99170     16.20036  162191.00000
    -0.00488     -0.29026  163317.00000
    -0.00488     -0.45657  163418.00000
    -0.00488     -0.45916  163517.00000
    -0.00488     -0.41786  163617.00000
    -0.00488     -0.38376  163718.00000
    -0.00488     -0.35715  163817.00000
    -0.00488     -0.32052  163917.00000
    -0.00488     -0.30504  164018.00000
    -0.00488     -0.29321  164117.00000
    -0.00488     -0.28138  164217.00000
     8.49121    -13.21921  165067.00000
     8.49121    -13.75377  165169.00000
     8.49121    -13.78540  165268.00000
     8.49121    -13.68491  165368.00000
     8.49121    -13.60978  165469.00000
     8.49121    -13.55302  165568.00000
     8.49121    -13.46443  165668.00000
     8.49121    -13.42937  165769.00000
     8.49121    -13.39854  165868.00000
     8.49121    -13.37048  165968.00000
    -8.49121     14.14039  167824.00000
    -8.49121     15.07771  167924.00000
    -8.49121     15.32050  168025.00000
    -8.49121     15.14109  168124.00000
    -8.49121     15.07385  168224.00000
    -8.49121     15.01869  168325.00000
    -8.49121     14.97054  168424.00000
    -8.49121     14.93029  168524.00000
    -8.49121     14.89406  168625.00000
    -8.49121     14.86254  168724.00000
    -0.00488     -0.13141  169844.00000
    -0.00488     -0.39357  169946.00000
    -0.00488     -0.42423  170045.00000
    -0.00488     -0.38655  170145.00000
    -0.00488     -0.35853  170246.00000
    -0.00488     -0.33724  170345.00000
    -0.00488     -0.31947  170445.00000
    -0.00488     -0.30412  170546.00000
    -0.00488     -0.29135  170645.00000
    -0.00488     -0.26892  170745.00000
     7.99316    -11.74585  171577.00000
     7.99316    -12.48148  171677.00000
     7.99316    -12.62931  171778.00000
     7.99316    -12.54597  171877.00000
     7.99316    -12.41016  171977.00000
     7.99316    -12.36531  172078.00000
     7.99316    -12.32641  172177.00000
     7.99316    -12.29243  172277.00000
     7.99316    -12.26249  172378.00000
     7.99316    -12.23664  172477.00000
    -7.99072     13.15622  174288.00000
    -7.99072     13.90314  174390.00000
    -7.99072     14.04551  174489.00000
    -7.99072     13.95577  174590.00000
    -7.99072     13.81196  174689.00000
    -7.99072     13.76207  174789.00000
    -7.99072     13.71811  174890.00000
    -7.99072     13.68107  174989.00000
    -7.99072     13.64763  175089.00000
    -7.99072     13.61805  175190.00000
    -0.00488     -0.24423  176290.00000
    -0.00488     -0.41829  176391.00000
    -0.00488     -0.43355  176490.00000
    -0.00488     -0.39495  176590.00000
    -0.00488     -0.36299  176691.00000
    -0.00488     -0.31955  176790.00000
    -0.00488     -0.30345  176890.00000
    -0.00488     -0.28826  176991.00000
    -0.00488     -0.27584  177090.00000
    -0.00488     -0.26565  177190.00000
     7.49268    -10.22686  178003.00000
     7.49268    -11.50120  178102.00000
     7.49268    -11.46638  178202.00000
     7.49268    -11.38414  178303.00000
     7.49268    -11.32536  178402.00000
     7.49268    -11.27943  178502.00000
     7.49268    -11.24315  178603.00000
     7.49268    -11.21119  178702.00000
     7.49268    -11.15684  178802.00000
     7.49268    -11.13312  178903.00000
    -7.49512     12.11305  180677.00000
    -7.49512     12.76136  180778.00000
    -7.49512     12.86843  180877.00000
    -7.49512     12.78271  180977.00000
    -7.49512     12.65184  181078.00000
    -7.49512     12.60368  181177.00000
    -7.49512     12.56431  181277.00000
    -7.49512     12.53065  181378.00000
    -7.49512     12.49986  181477.00000
    -7.49512     12.47236  181577.00000
    -0.00488     -0.30169  182660.00000
    -0.00488     -0.41951  182761.00000
    -0.00488     -0.40754  182861.00000
    -0.00488     -0.36885  182962.00000
    -0.00488     -0.34100  183061.00000
    -0.00488     -0.31895  183161.00000
    -0.00488     -0.30064  183262.00000
    -0.00488     -0.27305  183361.00000
    -0.00488     -0.26079  183461.00000
    -0.00488     -0.25101  183562.00000
     6.99463     -9.75128  184349.00000
     6.99463    -10.34119  184451.00000
     6.99463    -10.43112  184550.00000
     6.99463    -10.35735  184650.00000
     6.99463    -10.29356  184751.00000
     6.99463    -10.20887  184850.00000
     6.99463    -10.17588  184950.00000
     6.99463    -10.14790  185051.00000
     6.99463    -10.12158  185150.00000
     6.99463    -10.09843  185250.00000
    -6.99463     11.01242  186983.00000
    -6.99463     11.65255  187084.00000
    -6.99463     11.76369  187185.00000
    -6.99463     11.68410  187284.00000
    -6.99463     11.56107  187384.00000
    -6.99463     11.51712  187485.00000
    -6.99463     11.48043  187584.00000
    -6.99463     11.44863  187684.00000
    -6.99463     11.42032  187785.00000
    -6.99463     11.39558  187884.00000
    -0.00488     -0.01563  188949.00000
    -0.00488     -0.40505  189050.00000
    -0.00488     -0.38187  189151.00000
    -0.00488     -0.34610  189250.00000
    -0.00488     -0.31939  189350.00000
    -0.00488     -0.29999  189451.00000
    -0.00488     -0.28381  189550.00000
    -0.00488     -0.27022  189651.00000
    -0.00488     -0.24723  189750.00000
    -0.00488     -0.23794  189850.00000
     6.49414     -9.05129  190633.00000
     6.49414     -9.38320  190734.00000
     6.49414     -9.38474  190834.00000
     6.49414     -9.31517  190935.00000
     6.49414     -9.26376  191034.00000
     6.49414     -9.22375  191134.00000
     6.49414     -9.18950  191235.00000
     6.49414     -9.13725  191334.00000
     6.49414     -9.11585  191434.00000
     6.49414     -9.09502  191535.00000
    -6.49170      9.90020  193224.00000
    -6.49170     10.56453  193325.00000
    -6.49170     10.71787  193424.00000
    -6.49170     10.58690  193524.00000
    -6.49170     10.53592  193625.00000
    -6.49170     10.49561  193724.00000
    -6.49170     10.46060  193824.00000
    -6.49170     10.42980  193925.00000
    -6.49170     10.40284  194024.00000
    -6.49170     10.37866  194124.00000
    -0.00488      0.00447  195152.00000
    -0.00488     -0.30904  195254.00000
    -0.00488     -0.36029  195353.00000
    -0.00488     -0.32619  195454.00000
    -0.00488     -0.30134  195553.00000
    -0.00488     -0.28267  195653.00000
    -0.00488     -0.26835  195754.00000
    -0.00488     -0.25520  195853.00000
    -0.00488     -0.24245  195953.00000
    -0.00488     -0.23218  196053.00000
     5.99365     -7.64128  196804.00000
     5.99365     -8.28259  196906.00000
     5.99365     -8.42991  197005.00000
     5.99365     -8.32128  197105.00000
     5.99365     -8.27827  197206.00000
     5.99365     -8.24464  197305.00000
     5.99365     -8.21711  197405.00000
     5.99365     -8.19201  197506.00000
     5.99365     -8.17129  197605.00000
     5.99365     -8.15097  197705.00000
    -5.99365      9.04400  199334.00000
    -5.99365      9.62175  199436.00000
    -5.99365      9.72492  199535.00000
    -5.99365      9.65706  199636.00000
    -5.99365      9.55227  199735.00000
    -5.99365      9.51590  199835.00000
    -5.99365      9.48338  199936.00000
    -5.99365      9.45477  200035.00000
    -5.99365      9.43080  200135.00000
    -5.99365      9.40976  200236.00000
    -0.00488     -0.15594  201233.00000
    -0.00488     -0.34648  201333.00000
    -0.00488     -0.35778  201434.00000
    -0.00488     -0.32228  201533.00000
    -0.00488     -0.29488  201633.00000
    -0.00488     -0.27370  201734.00000
    -0.00488     -0.25771  201833.00000
    -0.00488     -0.23145  201933.00000
    -0.00488     -0.22062  202034.00000
    -0.00488     -0.21219  202133.00000
     5.49316     -6.59765  202855.00000
     5.49316     -7.30094  202956.00000
     5.49316     -7.49134  203057.00000
     5.49316     -7.39652  203156.00000
     5.49316     -7.35689  203256.00000
     5.49316     -7.32557  203357.00000
     5.49316     -7.29940  203456.00000
     5.49316     -7.27595  203556.00000
     5.49316     -7.25547  203657.00000
     5.49316     -7.23794  203756.00000
    -5.49072      7.48192  205336.00000
    -5.49072      8.76109  205438.00000
    -5.49072      8.75553  205537.00000
    -5.49072      8.68640  205637.00000
    -5.49072      8.63715  205738.00000
    -5.49072      8.60006  205837.00000
    -5.49072      8.56764  205937.00000
    -5.49072      8.53954  206038.00000
    -5.49072      8.49675  206137.00000
    -5.49072      8.47714  206237.00000
    -0.00488     -0.02027  207217.00000
    -0.00488     -0.29132  207318.00000
    -0.00488     -0.34197  207417.00000
    -0.00488     -0.31296  207517.00000
    -0.00488     -0.26063  207618.00000
    -0.00488     -0.24407  207717.00000
    -0.00488     -0.23048  207817.00000
    -0.00488     -0.21957  207918.00000
    -0.00488     -0.21081  208017.00000
    -0.00488     -0.20260  208117.00000
     4.99512     -5.67121  208821.00000
     4.99512     -6.38968  208922.00000
     4.99512     -6.57630  209023.00000
     4.99512     -6.52465  209122.00000
     4.99512     -6.48707  209222.00000
     4.99512     -6.45652  209323.00000
     4.99512     -6.43218  209422.00000
     4.99512     -6.41216  209522.00000
     4.99512     -6.39468  209623.00000
     4.99512     -6.36050  209722.00000
    -4.99268      7.19583  211248.00000
    -4.99268      7.76285  211349.00000
    -4.99268      7.87107  211449.00000
    -4.99268      7.81496  211550.00000
    -4.99268      7.72424  211649.00000
    -4.99268      7.69307  211749.00000
    -4.99268      7.66700  211850.00000
    -4.99268      7.64401  211949.00000
    -4.99268      7.62315  212049.00000
    -4.99268      7.60440  212150.00000
    -0.00488      0.13226  213117.00000
    -0.00488     -0.21662  213216.00000
    -0.00488     -0.29980  213316.00000
    -0.00488     -0.26989  213417.00000
    -0.00488     -0.24785  213516.00000
    -0.00488     -0.22997  213616.00000
    -0.00488     -0.21735  213717.00000
    -0.00488     -0.20663  213816.00000
    -0.00488     -0.19644  213916.00000
    -0.00488     -0.17866  214017.00000
     4.49463     -4.78473  214694.00000
     4.49463     -5.50779  214795.00000
     4.49463     -5.72943  214895.00000
     4.49463     -5.67985  214996.00000
     4.49463     -5.64514  215095.00000
     4.49463     -5.61810  215195.00000
     4.49463     -5.59616  215296.00000
     4.49463     -5.57644  215395.00000
     4.49463     -5.54561  215495.00000
     4.49463     -5.53178  215596.00000
    -4.49219      6.62102  217077.00000
    -4.49219      6.95658  217179.00000
    -4.49219      6.96833  217278.00000
    -4.49219      6.91135  217378.00000
    -4.49219      6.87080  217479.00000
    -4.49219      6.83960  217578.00000
    -4.49219      6.81377  217678.00000
    -4.49219      6.77044  217779.00000
    -4.49219      6.75277  217878.00000
    -4.49219      6.73605  217978.00000
    -0.00488      0.34333  218897.00000
    -0.00488     -0.28202  218998.00000
    -0.00488     -0.27759  219099.00000
    -0.00488     -0.24777  219198.00000
    -0.00488     -0.22648  219298.00000
    -0.00488     -0.21008  219399.00000
    -0.00488     -0.19639  219498.00000
    -0.00488     -0.18453  219598.00000
    -0.00488     -0.16842  219699.00000
    -0.00488     -0.16181  219798.00000
     3.99414     -4.26144  220435.00000
     3.99414     -4.81393  220535.00000
     3.99414     -4.93682  220636.00000
     3.99414     -4.89614  220735.00000
     3.99414     -4.85599  220835.00000
     3.99414     -4.80593  220936.00000
     3.99414     -4.78697  221035.00000
     3.99414     -4.77154  221135.00000
     3.99414     -4.75620  221236.00000
     3.99414     -4.74242  221335.00000
    -3.99170      4.95477  222751.00000
    -3.99170      6.11008  222853.00000
    -3.99170      6.10267  222952.00000
    -3.99170      6.04943  223052.00000
    -3.99170      6.01277  223153.00000
    -3.99170      5.98600  223252.00000
    -3.99170      5.96241  223352.00000
    -3.99170      5.94272  223453.00000
    -3.99170      5.91114  223552.00000
    -3.99170      5.89752  223652.00000
    -0.00488      0.10432  224546.00000
    -0.00488     -0.20028  224648.00000
    -0.00488     -0.25879  224747.00000
    -0.00488     -0.23297  224847.00000
    -0.00488     -0.20744  224948.00000
    -0.00488     -0.17783  225047.00000
    -0.00488     -0.16605  225147.00000
    -0.00488     -0.15700  225248.00000
    -0.00488     -0.14924  225347.00000
    -0.00488     -0.14198  225448.00000
     3.49365     -3.37879  226058.00000
     3.49365     -3.98075  226159.00000
     3.49365     -4.15854  226260.00000
     3.49365     -4.09373  226359.00000
     3.49365     -4.06758  226459.00000
     3.49365     -4.04699  226560.00000
     3.49365     -4.02943  226659.00000
     3.49365     -4.01393  226759.00000
     3.49365     -4.00061  226860.00000
     3.49365     -3.98880  226959.00000
    -3.49121      4.54321  228326.00000
    -3.49121      5.14739  228427.00000
    -3.49121      5.29475  228528.00000
    -3.49121      5.25772  228627.00000
    -3.49121      5.18748  228727.00000
    -3.49121      5.16630  228828.00000
    -3.49121      5.14558  228927.00000
    -3.49121      5.12866  229027.00000
    -3.49121      5.11291  229128.00000
    -3.49121      5.10022  229227.00000
    -0.00488      0.35176  230104.00000
    -0.00488     -0.09119  230204.00000
    -0.00488     -0.21413  230304.00000
    -0.00488     -0.18844  230405.00000
    -0.00488     -0.17102  230504.00000
    -0.00488     -0.15708  230604.00000
    -0.00488     -0.14600  230705.00000
    -0.00488     -0.13641  230804.00000
    -0.00488     -0.12815  230904.00000
    -0.00488     -0.11618  231005.00000
     2.99316     -2.61591  231579.00000
     2.99316     -3.22289  231681.00000
     2.99316     -3.42237  231780.00000
     2.99316     -3.36966  231880.00000
     2.99316     -3.34646  231981.00000
     2.99316     -3.32787  232080.00000
     2.99316     -3.31201  232180.00000
     2.99316     -3.29777  232281.00000
     2.99316     -3.28759  232380.00000
     2.99316     -3.27830  232480.00000
    -2.99072      3.51817  233774.00000
    -2.99072      4.24480  233875.00000
    -2.99072      4.47703  233975.00000
    -2.99072      4.43650  234076.00000
    -2.99072      4.40925  234175.00000
    -2.99072      4.38798  234275.00000
    -2.99072      4.37037  234376.00000
    -2.99072      4.35481  234475.00000
    -2.99072      4.34128  234575.00000
    -2.99072      4.31909  234676.00000
    -0.00488      0.32693  235514.00000
    -0.00488     -0.08600  235615.00000
    -0.00488     -0.19255  235714.00000
    -0.00488     -0.15365  235814.00000
    -0.00488     -0.13873  235915.00000
    -0.00488     -0.12625  236014.00000
    -0.00488     -0.11547  236115.00000
    -0.00488     -0.10805  236214.00000
    -0.00488     -0.10156  236314.00000
    -0.00488     -0.09567  236415.00000
     2.49268     -1.68969  236947.00000
     2.49268     -2.71343  237047.00000
     2.49268     -2.74539  237148.00000
     2.49268     -2.71119  237247.00000
     2.49268     -2.68704  237347.00000
     2.49268     -2.66991  237448.00000
     2.49268     -2.65578  237547.00000
     2.49268     -2.64400  237647.00000
     2.49268     -2.62371  237748.00000
     2.49268     -2.61458  237847.00000
    -2.49512      3.27093  239055.00000
    -2.49512      3.68421  239156.00000
    -2.49512      3.73773  239255.00000
    -2.49512      3.70017  239355.00000
    -2.49512      3.67413  239456.00000
    -2.49512      3.65344  239555.00000
    -2.49512      3.63601  239656.00000
    -2.49512      3.61018  239755.00000
    -2.49512      3.59995  239855.00000
    -2.49512      3.59171  239956.00000
    -0.00488      0.34589  240751.00000
    -0.00488     -0.05917  240852.00000
    -0.00488     -0.15502  240951.00000
    -0.00488     -0.13952  241051.00000
    -0.00488     -0.10526  241152.00000
    -0.00488     -0.09532  241251.00000
    -0.00488     -0.08608  241350.00000
    -0.00488     -0.07771  241452.00000
    -0.00488     -0.07244  241551.00000
    -0.00488     -0.06796  241651.00000
     1.99219     -1.56863  242154.00000
     1.99219     -2.01055  242254.00000
     1.99219     -2.12877  242355.00000
     1.99219     -2.10637  242454.00000
     1.99219     -2.06585  242554.00000
     1.99219     -2.05274  242655.00000
     1.99219     -2.04205  242754.00000
     1.99219     -2.03446  242854.00000
     1.99219     -2.02573  242955.00000
     1.99219     -2.01760  243054.00000
    -1.99463      2.11278  244196.00000
    -1.99463      2.76020  244297.00000
    -1.99463      3.00645  244398.00000
    -1.99463      2.97446  244498.00000
    -1.99463      2.95414  244597.00000
    -1.99463      2.93899  244698.00000
    -1.99463      2.92586  244797.00000
    -1.99463      2.91470  244897.00000
    -1.99463      2.90517  244998.00000
    -1.99463      2.88801  245097.00000
    -0.00488      0.68340  245863.00000
    -0.00488      0.08649  245964.00000
    -0.00488     -0.10699  246065.00000
    -0.00488     -0.08668  246164.00000
    -0.00488     -0.07271  246264.00000
    -0.00488     -0.06266  246365.00000
    -0.00488     -0.05396  246464.00000
    -0.00488     -0.04864  246564.00000
    -0.00488     -0.04202  246665.00000
    -0.00488     -0.03381  246764.00000
     1.49414     -1.09189  247223.00000
     1.49414     -1.46748  247324.00000
     1.49414     -1.55836  247425.00000
     1.49414     -1.53740  247524.00000
     1.49414     -1.51841  247624.00000
     1.49414     -1.49569  247725.00000
     1.49414     -1.48729  247824.00000
     1.49414     -1.47862  247924.00000
     1.49414     -1.47170  248025.00000
     1.49414     -1.46630  248124.00000
    -1.49170      1.56442  249186.00000
    -1.49170      2.12285  249287.00000
    -1.49170      2.32766  249388.00000
    -1.49170      2.30067  249487.00000
    -1.49170      2.28535  249587.00000
    -1.49170      2.27376  249688.00000
    -1.49170      2.26288  249787.00000
    -1.49170      2.25328  249887.00000
    -1.49170      2.24497  249988.00000
    -1.49170      2.23286  250087.00000
    -0.00488      0.43340  250799.00000
    -0.00488      0.02128  250899.00000
    -0.00488     -0.05877  250999.00000
    -0.00488     -0.04383  251100.00000
    -0.00488     -0.02905  251199.00000
    -0.00488     -0.01779  251298.00000
    -0.00488     -0.00631  251400.00000
    -0.00488     -0.00060  251499.00000
    -0.00488      0.00377  251599.00000
    -0.00488      0.00769  251700.00000
     0.99365     -0.69136  252097.00000
     0.99365     -0.98396  252198.00000
     0.99365     -1.02984  252299.00000
     0.99365     -1.01084  252398.00000
     0.99365     -0.99934  252499.00000
     0.99365     -0.98783  252598.00000
     0.99365     -0.97956  252698.00000
     0.99365     -0.96616  252799.00000
     0.99365     -0.96168  252898.00000
     0.99365     -0.95711  252998.00000
    -0.99121      1.25890  253944.00000
    -0.99121      1.62653  254046.00000
    -0.99121      1.70282  254145.00000
    -0.99121      1.68240  254245.00000
    -0.99121      1.66438  254346.00000
    -0.99121      1.65376  254445.00000
    -0.99121      1.64614  254545.00000
    -0.99121      1.63201  254646.00000
    -0.99121      1.62661  254745.00000
    -0.99121      1.62275  254846.00000
    -0.00488      1.16219  255507.00000
    -0.00488      0.06266  255607.00000
    -0.00488      0.01052  255708.00000
    -0.00488      0.02211  255807.00000
    -0.00488      0.03138  255907.00000
    -0.00488      0.03746  256008.00000
    -0.00488      0.04402  256107.00000
    -0.00488      0.04867  256207.00000
    -0.00488      0.05599  256308.00000
    -0.00488      0.05942  256407.00000
     0.49072     -0.19044  256745.00000
     0.49072     -0.44776  256846.00000
     0.49072     -0.51195  256947.00000
     0.49072     -0.49842  257046.00000
     0.49072     -0.48764  257146.00000
     0.49072     -0.48091  257247.00000
     0.49072     -0.47645  257346.00000
     0.49072     -0.46673  257446.00000
     0.49072     -0.46394  257547.00000
     0.49072     -0.46043  257646.00000
    -0.49072      0.52838  258458.00000
    -0.49072      0.85062  258559.00000
    -0.49072      1.05661  258658.00000
    -0.49072      1.05359  258758.00000
    -0.49072      1.04475  258859.00000
    -0.49072      1.03854  258958.00000
    -0.49072      1.03365  259058.00000
    -0.49072      1.02884  259159.00000
    -0.49072      1.02465  259258.00000
    -0.49072      1.02147  259358.00000
    -0.00488      0.90398  259959.00000
    -0.00488      0.48986  260060.00000
    -0.00488      0.10881  260159.00000
    -0.00488      0.11680  260259.00000
    -0.00488      0.12248  260360.00000
    -0.00488      0.12820  260459.00000
    -0.00488      0.13207  260559.00000
    -0.00488      0.13401  260660.00000
    -0.00488      0.13612  260759.00000
    -0.00488      0.13850  260859.00000