# Acquired on 14/06/2024 13:05:02 
# SPIDER: CNT0771454D-RODATO_10000_CICLI-10mm_FIT
# STATIC MEASUREMENT

  # x_forw [mm]    f_forw [N]    kms_forw [N/mm]
      -10.98145      28.61584            2.60584
      -10.73242      27.61447            2.57300
      -10.47852      26.62821            2.54122
      -10.23193      25.70209            2.51195
       -9.98047      24.78796            2.48365
       -9.73389      23.91962            2.45735
       -9.47998      23.05278            2.43173
       -9.23340      22.23589            2.40820
       -8.98193      21.42661            2.38552
       -8.73535      20.65493            2.36452
       -8.48389      19.88889            2.34431
       -8.23486      19.14979            2.32545
       -7.98340      18.42186            2.30752
       -7.73438      17.71805            2.29082
       -7.48535      17.03005            2.27512
       -7.23389      16.35027            2.26023
       -6.98242      15.68449            2.24628
       -6.73340      15.03797            2.23334
       -6.48438      14.40330            2.22123
       -6.23291      13.77352            2.20981
       -5.98389      13.16006            2.19925
       -5.73242      12.55010            2.18932
       -5.48340      11.95475            2.18017
       -5.23438      11.36735            2.17167
       -4.98291      10.78162            2.16372
       -4.73633      10.21391            2.15650
       -4.48242       9.63563            2.14965
       -4.23584       9.07960            2.14352
       -3.98438       8.51772            2.13778
       -3.73535       7.96595            2.13258
       -3.48633       7.41837            2.12785
       -3.23731       6.87458            2.12355
       -2.98584       6.32889            2.11963
       -2.73682       5.79154            2.11616
       -2.48779       5.25689            2.11307
       -2.23633       4.71938            2.11033
       -1.98486       4.18398            2.10795
       -1.73584       3.65556            2.10593
       -1.48682       3.12863            2.10425
       -1.23535       2.59779            2.10288
       -0.98633       2.07310            2.10184
       -0.73486       1.54402            2.10110
       -0.48584       1.02059            2.10068
       -0.23682       0.49744            2.10055
        0.23926      -0.50272            2.10115
        0.47852      -1.00577            2.10186
        0.73730      -1.55051            2.10294
        0.97900      -2.06007            2.10425
        1.23535      -2.60160            2.10596
        1.47949      -3.11863            2.10790
        1.73584      -3.66311            2.11028
        1.98242      -4.18867            2.11290
        2.23389      -4.72675            2.11593
        2.48291      -5.26201            2.11929
        2.73438      -5.80526            2.12307
        2.98096      -6.34096            2.12715
        3.23486      -6.89603            2.13178
        3.48144      -7.43881            2.13670
        3.73535      -8.00198            2.14223
        3.98193      -8.55344            2.14806
        4.23340      -9.12089            2.15451
        4.48242      -9.68836            2.16141
        4.73633     -10.27316            2.16901
        4.98047     -10.84189            2.17688
        5.23438     -11.44066            2.18568
        5.47607     -12.01813            2.19466
        5.73486     -12.64522            2.20497
        5.97656     -13.23980            2.21529
        6.23535     -13.88671            2.22709
        6.47705     -14.50128            2.23887
        6.73340     -15.16493            2.25220
        6.97998     -15.81565            2.26586
        7.23144     -16.49270            2.28069
        7.48047     -17.17753            2.29632
        7.73438     -17.89157            2.31325
        7.98096     -18.60136            2.33072
        8.23486     -19.35026            2.34980
        8.47900     -20.08879            2.36924
        8.73535     -20.88501            2.39086
        8.97949     -21.66441            2.41265
        9.23096     -22.49013            2.43638
        9.47754     -23.32385            2.46096
        9.73145     -24.20880            2.48769
        9.97559     -25.08660            2.51480
       10.23193     -26.03841            2.54482
       10.47363     -26.96579            2.57464
       10.73242     -27.99290            2.60826
       10.97412     -28.98594            2.64130

  # x_back [mm]    f_back [N]    kms_back [N/mm]
      -10.98145      28.38954            2.58523
      -10.73242      27.26861            2.54077
      -10.47852      26.17380            2.49785
      -10.23193      25.15443            2.45842
       -9.98047      24.15682            2.42041
       -9.73389      23.21732            2.38521
       -9.48242      22.29638            2.35134
       -9.23340      21.41910            2.31974
       -8.98193      20.56613            2.28972
       -8.73535      19.75981            2.26205
       -8.48389      18.96623            2.23556
       -8.23486      18.20704            2.21097
       -7.98340      17.46557            2.18774
       -7.73438      16.75450            2.16624
       -7.48535      16.06489            2.14618
       -7.23389      15.38875            2.12731
       -6.98242      14.73145            2.10979
       -6.73340      14.09769            2.09370
       -6.48193      13.47371            2.07866
       -6.23291      12.87037            2.06491
       -5.98389      12.28038            2.05224
       -5.73242      11.69702            2.04050
       -5.48096      11.12505            2.02976
       -5.23438      10.57427            2.02016
       -4.98291      10.02193            2.01126
       -4.73633       9.48862            2.00337
       -4.48242       8.94721            1.99607
       -4.23340       8.42306            1.98967
       -3.98438       7.90497            1.98399
       -3.73535       7.39227            1.97900
       -3.48633       6.88431            1.97466
       -3.23486       6.37558            1.97090
       -2.98584       5.87542            1.96776
       -2.73438       5.37347            1.96515
       -2.48291       4.87416            1.96309
       -2.23389       4.38186            1.96154
       -1.98242       3.88647            1.96046
       -1.73340       3.39721            1.95986
       -1.48193       2.90412            1.95968
       -1.23535       2.42120            1.95992
       -0.98389       1.92899            1.96058
       -0.73486       1.44151            1.96161
       -0.48340       0.94893            1.96303
       -0.23438       0.46050            1.96481
        0.23438      -0.46151            1.96910
        0.47852      -0.94355            1.97182
        0.73486      -1.45137            1.97502
        0.97900      -1.93687            1.97840
        1.23535      -2.44885            1.98231
        1.47949      -2.93881            1.98636
        1.73096      -3.44613            1.99088
        1.97998      -3.95147            1.99571
        2.23389      -4.47001            2.00100
        2.48291      -4.98212            2.00656
        2.73438      -5.50311            2.01257
        2.98096      -6.01808            2.01884
        3.23486      -6.55293            2.02572
        3.48144      -7.07717            2.03283
        3.73535      -7.62235            2.04060
        3.98193      -8.15743            2.04861
        4.23340      -8.70927            2.05728
        4.47998      -9.25691            2.06628
        4.73144      -9.82255            2.07601
        4.98047     -10.39037            2.08622
        5.23438     -10.97779            2.09725
        5.47607     -11.54552            2.10836
        5.73486     -12.16333            2.12095
        5.97656     -12.75033            2.13339
        6.23535     -13.39032            2.14748
        6.47705     -13.99957            2.16141
        6.73096     -14.65246            2.17688
        6.97998     -15.30652            2.19292
        7.23144     -15.98180            2.21004
        7.48047     -16.66622            2.22796
        7.73438     -17.38129            2.24728
        7.98096     -18.09353            2.26709
        8.23486     -18.84653            2.28863
        8.47900     -19.59060            2.31048
        8.73291     -20.38667            2.33446
        8.97949     -21.18289            2.35903
        9.23340     -22.02815            2.38570
        9.47998     -22.87526            2.41301
        9.73145     -23.76748            2.44234
        9.97803     -24.67188            2.47262
       10.23193     -25.63559            2.50545
       10.47363     -26.58541            2.53832
       10.72998     -27.62944            2.57498
       10.97412     -28.66092            2.61168