# Acquired on 27/08/2024 15:42:42 
# SPIDER: CNT0771454D-1_24h_PostRodaggio_2024-08-27
# TRACKING MEASUREMENT

  # pos [mm]    force [N]     time [ms]
     0.49316     -0.13785     237.00000
     0.49316     -0.54719     338.00000
     0.49316     -0.78636     438.00000
     0.49316     -0.77528     539.00000
     0.49316     -0.76469     638.00000
     0.49316     -0.75578     738.00000
     0.49316     -0.74997     839.00000
     0.49316     -0.74589     938.00000
     0.49316     -0.74194    1038.00000
     0.49316     -0.73827    1139.00000
    -0.49316      0.89846    1956.00000
    -0.49316      1.38565    2057.00000
    -0.49316      1.53629    2158.00000
    -0.49316      1.52283    2257.00000
    -0.49316      1.50865    2357.00000
    -0.49316      1.50068    2458.00000
    -0.49316      1.48712    2557.00000
    -0.49316      1.48145    2657.00000
    -0.49316      1.47674    2758.00000
    -0.49316      1.47361    2857.00000
    -0.00488      1.07279    3452.00000
    -0.00488      0.41791    3553.00000
    -0.00488      0.17131    3654.00000
    -0.00488      0.16623    3753.00000
    -0.00488      0.17496    3853.00000
    -0.00488      0.18106    3954.00000
    -0.00488      0.18784    4053.00000
    -0.00488      0.19079    4153.00000
    -0.00488      0.19354    4254.00000
    -0.00488      0.19492    4353.00000
     0.99365     -0.99716    4752.00000
     0.99365     -1.45523    4853.00000
     0.99365     -1.51866    4952.00000
     0.99365     -1.49178    5053.00000
     0.99365     -1.47452    5152.00000
     0.99365     -1.46288    5252.00000
     0.99365     -1.45439    5353.00000
     0.99365     -1.44748    5452.00000
     0.99365     -1.43551    5552.00000
     0.99365     -1.43027    5653.00000
    -0.99365      1.15761    6592.00000
    -0.99365      2.43095    6693.00000
    -0.99365      2.51103    6793.00000
    -0.99365      2.48609    6894.00000
    -0.99365      2.46842    6993.00000
    -0.99365      2.45486    7093.00000
    -0.99365      2.44570    7194.00000
    -0.99365      2.43768    7293.00000
    -0.99365      2.42428    7393.00000
    -0.99365      2.41928    7494.00000
    -0.00488      1.65091    8161.00000
    -0.00488      0.13805    8262.00000
    -0.00488      0.08221    8361.00000
    -0.00488      0.09813    8461.00000
    -0.00488      0.10969    8562.00000
    -0.00488      0.11758    8661.00000
    -0.00488      0.12363    8761.00000
    -0.00488      0.12754    8862.00000
    -0.00488      0.13268    8961.00000
    -0.00488      0.13843    9061.00000
     1.49414     -1.56197    9521.00000
     1.49414     -2.12718    9622.00000
     1.49414     -2.25062    9721.00000
     1.49414     -2.22365    9821.00000
     1.49414     -2.20002    9922.00000
     1.49414     -2.17476   10021.00000
     1.49414     -2.16571   10121.00000
     1.49414     -2.15687   10222.00000
     1.49414     -2.14931   10321.00000
     1.49414     -2.14304   10421.00000
    -1.49414      2.42723   11471.00000
    -1.49414      3.19722   11572.00000
    -1.49414      3.43366   11673.00000
    -1.49414      3.42261   11772.00000
    -1.49414      3.37800   11872.00000
    -1.49414      3.36369   11973.00000
    -1.49414      3.35226   12072.00000
    -1.49414      3.34264   12172.00000
    -1.49414      3.33419   12273.00000
    -1.49414      3.32678   12372.00000
    -0.00488      1.77551   13090.00000
    -0.00488      0.09883   13190.00000
    -0.00488      0.03204   13291.00000
    -0.00488      0.05144   13390.00000
    -0.00488      0.06668   13490.00000
    -0.00488      0.07638   13591.00000
    -0.00488      0.08483   13690.00000
    -0.00488      0.09180   13789.00000
    -0.00488      0.10177   13891.00000
    -0.00488      0.10537   13990.00000
     1.99219     -1.70688   14492.00000
     1.99219     -2.98643   14593.00000
     1.99219     -3.01637   14693.00000
     1.99219     -2.98127   14794.00000
     1.99219     -2.96071   14893.00000
     1.99219     -2.94469   14994.00000
     1.99219     -2.93197   15093.00000
     1.99219     -2.92257   15193.00000
     1.99219     -2.90568   15294.00000
     1.99219     -2.89885   15393.00000
    -1.99219      3.67123   16535.00000
    -1.99219      4.26000   16635.00000
    -1.99219      4.37090   16735.00000
    -1.99219      4.33718   16836.00000
    -1.99219      4.30966   16935.00000
    -1.99219      4.29088   17035.00000
    -1.99219      4.26268   17136.00000
    -1.99219      4.25257   17235.00000
    -1.99219      4.24223   17335.00000
    -1.99219      4.23339   17436.00000
    -0.00488      0.57781   18195.00000
    -0.00488      0.07649   18296.00000
    -0.00488     -0.01423   18396.00000
    -0.00488      0.00711   18497.00000
    -0.00488      0.02553   18596.00000
    -0.00488      0.03777   18696.00000
    -0.00488      0.05463   18797.00000
    -0.00488      0.05987   18896.00000
    -0.00488      0.06419   18996.00000
    -0.00488      0.06981   19097.00000
     2.49268     -2.94807   19628.00000
     2.49268     -3.67019   19730.00000
     2.49268     -3.86538   19829.00000
     2.49268     -3.83774   19929.00000
     2.49268     -3.78576   20030.00000
     2.49268     -3.76993   20129.00000
     2.49268     -3.75707   20229.00000
     2.49268     -3.74600   20330.00000
     2.49268     -3.73481   20429.00000
     2.49268     -3.72649   20529.00000
    -2.49268      4.26038   21738.00000
    -2.49268      5.09275   21839.00000
    -2.49268      5.32530   21939.00000
    -2.49268      5.29904   22040.00000
    -2.49268      5.23780   22139.00000
    -2.49268      5.21915   22239.00000
    -2.49268      5.20224   22340.00000
    -2.49268      5.18879   22439.00000
    -2.49268      5.17760   22539.00000
    -2.49268      5.16747   22640.00000
    -0.00488      1.19970   23435.00000
    -0.00488      0.28618   23536.00000
    -0.00488     -0.04830   23635.00000
    -0.00488     -0.02250   23735.00000
    -0.00488     -0.00445   23836.00000
    -0.00488      0.00714   23935.00000
    -0.00488      0.01730   24035.00000
    -0.00488      0.02597   24136.00000
    -0.00488      0.03194   24235.00000
    -0.00488      0.04218   24335.00000
     2.99316     -3.69764   24911.00000
     2.99316     -4.50110   25012.00000
     2.99316     -4.74203   25113.00000
     2.99316     -4.68337   25212.00000
     2.99316     -4.65806   25312.00000
     2.99316     -4.63921   25413.00000
     2.99316     -4.62392   25512.00000
     2.99316     -4.61011   25612.00000
     2.99316     -4.59879   25713.00000
     2.99316     -4.58812   25812.00000
    -2.99072      5.23477   27099.00000
    -2.99072      6.05374   27201.00000
    -2.99072      6.27286   27300.00000
    -2.99072      6.19852   27400.00000
    -2.99072      6.16928   27501.00000
    -2.99072      6.14716   27600.00000
    -2.99072      6.12909   27700.00000
    -2.99072      6.11358   27801.00000
    -2.99072      6.09921   27900.00000
    -2.99072      6.08751   28000.00000
    -0.00488      0.54018   28834.00000
    -0.00488      0.02062   28934.00000
    -0.00488     -0.09385   29035.00000
    -0.00488     -0.07307   29134.00000
    -0.00488     -0.04876   29234.00000
    -0.00488     -0.02004   29335.00000
    -0.00488     -0.01118   29434.00000
    -0.00488     -0.00305   29534.00000
    -0.00488      0.00506   29635.00000
    -0.00488      0.01141   29734.00000
     3.49365     -4.74559   30346.00000
     3.49365     -5.47341   30447.00000
     3.49365     -5.65960   30546.00000
     3.49365     -5.62583   30646.00000
     3.49365     -5.55824   30747.00000
     3.49365     -5.53890   30846.00000
     3.49365     -5.52096   30946.00000
     3.49365     -5.50489   31047.00000
     3.49365     -5.49154   31146.00000
     3.49365     -5.47979   31246.00000
    -3.49121      6.45540   32613.00000
    -3.49121      7.09718   32715.00000
    -3.49121      7.21724   32814.00000
    -3.49121      7.16715   32915.00000
    -3.49121      7.12614   33014.00000
    -3.49121      7.07289   33114.00000
    -3.49121      7.05220   33215.00000
    -3.49121      7.03505   33314.00000
    -3.49121      7.02048   33414.00000
    -3.49121      7.00687   33515.00000
    -0.00488      0.59591   34389.00000
    -0.00488      0.02505   34490.00000
    -0.00488     -0.12948   34590.00000
    -0.00488     -0.08877   34690.00000
    -0.00488     -0.07040   34791.00000
    -0.00488     -0.05621   34890.00000
    -0.00488     -0.04468   34990.00000
    -0.00488     -0.03568   35091.00000
    -0.00488     -0.02696   35190.00000
    -0.00488     -0.02082   35290.00000
     3.99414     -6.04322   35926.00000
     3.99414     -6.53776   36027.00000
     3.99414     -6.59217   36128.00000
     3.99414     -6.53868   36227.00000
     3.99414     -6.50127   36328.00000
     3.99414     -6.47371   36427.00000
     3.99414     -6.45280   36527.00000
     3.99414     -6.41773   36628.00000
     3.99414     -6.40541   36727.00000
     3.99414     -6.39172   36827.00000
    -3.99170      7.31979   38236.00000
    -3.99170      8.02440   38338.00000
    -3.99170      8.17401   38437.00000
    -3.99170      8.12387   38537.00000
    -3.99170      8.04264   38638.00000
    -3.99170      8.01519   38737.00000
    -3.99170      7.99355   38837.00000
    -3.99170      7.97453   38938.00000
    -3.99170      7.95794   39037.00000
    -3.99170      7.94203   39137.00000
    -0.00488      0.89708   40037.00000
    -0.00488     -0.14350   40138.00000
    -0.00488     -0.16409   40238.00000
    -0.00488     -0.13321   40339.00000
    -0.00488     -0.11033   40438.00000
    -0.00488     -0.09244   40538.00000
    -0.00488     -0.07831   40639.00000
    -0.00488     -0.06886   40738.00000
    -0.00488     -0.05173   40837.00000
    -0.00488     -0.04516   40939.00000
     4.49463     -6.30046   41616.00000
     4.49463     -7.53906   41718.00000
     4.49463     -7.53452   41817.00000
     4.49463     -7.47909   41918.00000
     4.49463     -7.44229   42017.00000
     4.49463     -7.41279   42117.00000
     4.49463     -7.38991   42218.00000
     4.49463     -7.37035   42317.00000
     4.49463     -7.33866   42417.00000
     4.49463     -7.32467   42518.00000
    -4.49463      8.77251   43993.00000
    -4.49463      9.11360   44094.00000
    -4.49463      9.11620   44193.00000
    -4.49463      9.05617   44293.00000
    -4.49463      9.01284   44394.00000
    -4.49463      8.98131   44493.00000
    -4.49463      8.95416   44593.00000
    -4.49463      8.93036   44694.00000
    -4.49463      8.89208   44793.00000
    -4.49463      8.87690   44893.00000
    -0.00488      0.68852   45818.00000
    -0.00488      0.02405   45918.00000
    -0.00488     -0.19094   46019.00000
    -0.00488     -0.15639   46118.00000
    -0.00488     -0.13313   46218.00000
    -0.00488     -0.11657   46319.00000
    -0.00488     -0.10303   46418.00000
    -0.00488     -0.09214   46518.00000
    -0.00488     -0.08245   46619.00000
    -0.00488     -0.06721   46718.00000
     4.99512     -8.12119   47422.00000
     4.99512     -8.50780   47523.00000
     4.99512     -8.51974   47623.00000
     4.99512     -8.45828   47724.00000
     4.99512     -8.41641   47823.00000
     4.99512     -8.38413   47923.00000
     4.99512     -8.35887   48024.00000
     4.99512     -8.31764   48123.00000
     4.99512     -8.30073   48223.00000
     4.99512     -8.28498   48324.00000
    -4.99268      8.77807   49872.00000
    -4.99268     10.10023   49973.00000
    -4.99268     10.08959   50074.00000
    -4.99268     10.02248   50173.00000
    -4.99268      9.97677   50273.00000
    -4.99268      9.94287   50374.00000
    -4.99268      9.91353   50473.00000
    -4.99268      9.88946   50573.00000
    -4.99268      9.84810   50674.00000
    -4.99268      9.83019   50773.00000
    -0.00488      0.90156   51716.00000
    -0.00488     -0.19991   51818.00000
    -0.00488     -0.22787   51917.00000
    -0.00488     -0.19180   52017.00000
    -0.00488     -0.16487   52117.00000
    -0.00488     -0.14480   52217.00000
    -0.00488     -0.13056   52317.00000
    -0.00488     -0.11794   52418.00000
    -0.00488     -0.09790   52517.00000
    -0.00488     -0.09074   52617.00000
     5.49072     -8.72090   53333.00000
     5.49072     -9.40090   53434.00000
     5.49072     -9.53320   53535.00000
     5.49072     -9.47141   53634.00000
     5.49072     -9.41757   53735.00000
     5.49072     -9.34944   53834.00000
     5.49072     -9.32310   53934.00000
     5.49072     -9.30038   54035.00000
     5.49072     -9.28004   54134.00000
     5.49072     -9.26194   54234.00000
    -5.49316     10.09145   55814.00000
    -5.49316     10.90729   55916.00000
    -5.49316     11.11471   56015.00000
    -5.49316     10.99785   56115.00000
    -5.49316     10.95243   56216.00000
    -5.49316     10.91656   56315.00000
    -5.49316     10.88587   56415.00000
    -5.49316     10.85923   56516.00000
    -5.49316     10.83516   56615.00000
    -5.49316     10.81468   56715.00000
    -0.00488      0.05555   57713.00000
    -0.00488     -0.22957   57814.00000
    -0.00488     -0.26229   57914.00000
    -0.00488     -0.22657   58015.00000
    -0.00488     -0.19837   58114.00000
    -0.00488     -0.16128   58215.00000
    -0.00488     -0.14750   58314.00000
    -0.00488     -0.13642   58414.00000
    -0.00488     -0.12586   58515.00000
    -0.00488     -0.11789   58614.00000
     5.99365    -10.09741   59365.00000
     5.99365    -10.51796   59466.00000
     5.99365    -10.53622   59566.00000
     5.99365    -10.46282   59667.00000
     5.99365    -10.41157   59766.00000
     5.99365    -10.37421   59866.00000
     5.99365    -10.34231   59967.00000
     5.99365    -10.29273   60066.00000
     5.99365    -10.27134   60166.00000
     5.99365    -10.25200   60267.00000
    -5.99121     11.61642   61919.00000
    -5.99121     12.08570   62021.00000
    -5.99121     12.11833   62120.00000
    -5.99121     12.03985   62220.00000
    -5.99121     11.98085   62321.00000
    -5.99121     11.93595   62420.00000
    -5.99121     11.87106   62520.00000
    -5.99121     11.84424   62621.00000
    -5.99121     11.82062   62720.00000
    -5.99121     11.80044   62820.00000
    -0.00488      0.55036   63818.00000
    -0.00488     -0.07458   63919.00000
    -0.00488     -0.28106   64020.00000
    -0.00488     -0.24321   64119.00000
    -0.00488     -0.21615   64219.00000
    -0.00488     -0.19618   64320.00000
    -0.00488     -0.18038   64419.00000
    -0.00488     -0.16627   64519.00000
    -0.00488     -0.15385   64620.00000
    -0.00488     -0.13488   64719.00000
     6.49170    -11.27374   65507.00000
     6.49170    -11.58031   65608.00000
     6.49170    -11.55856   65707.00000
     6.49170    -11.48036   65807.00000
     6.49170    -11.42806   65908.00000
     6.49170    -11.38837   66007.00000
     6.49170    -11.35587   66107.00000
     6.49170    -11.30413   66208.00000
     6.49170    -11.28198   66307.00000
     6.49170    -11.26194   66408.00000
    -6.49414     12.48915   68096.00000
    -6.49414     13.08235   68197.00000
    -6.49414     13.17631   68297.00000
    -6.49414     13.03081   68397.00000
    -6.49414     12.98110   68498.00000
    -6.49414     12.94125   68597.00000
    -6.49414     12.90707   68697.00000
    -6.49414     12.87711   68798.00000
    -6.49414     12.85048   68897.00000
    -6.49414     12.82557   68997.00000
    -0.00488      0.20800   70025.00000
    -0.00488     -0.22298   70127.00000
    -0.00488     -0.32418   70226.00000
    -0.00488     -0.29225   70326.00000
    -0.00488     -0.23179   70427.00000
    -0.00488     -0.21234   70526.00000
    -0.00488     -0.19596   70626.00000
    -0.00488     -0.18305   70727.00000
    -0.00488     -0.17235   70826.00000
    -0.00488     -0.16201   70926.00000
     6.99219    -11.43551   71715.00000
     6.99219    -12.38607   71816.00000
     6.99219    -12.61138   71917.00000
     6.99219    -12.53163   72016.00000
     6.99219    -12.47720   72116.00000
     6.99219    -12.43540   72217.00000
     6.99219    -12.40101   72316.00000
     6.99219    -12.37032   72416.00000
     6.99219    -12.34390   72517.00000
     6.99219    -12.29873   72616.00000
    -6.99219     13.22067   74336.00000
    -6.99219     14.06892   74438.00000
    -6.99219     14.27535   74537.00000
    -6.99219     14.11812   74637.00000
    -6.99219     14.06187   74738.00000
    -6.99219     14.01524   74837.00000
    -6.99219     13.97704   74937.00000
    -6.99219     13.94341   75038.00000
    -6.99219     13.91450   75137.00000
    -6.99219     13.88789   75237.00000
    -0.00488     -0.15874   76302.00000
    -0.00488     -0.34117   76403.00000
    -0.00488     -0.33769   76502.00000
    -0.00488     -0.29751   76602.00000
    -0.00488     -0.26596   76703.00000
    -0.00488     -0.24467   76802.00000
    -0.00488     -0.22690   76903.00000
    -0.00488     -0.19961   77002.00000
    -0.00488     -0.18740   77102.00000
    -0.00488     -0.17792   77203.00000
     7.49268    -12.85263   78015.00000
     7.49268    -13.62259   78116.00000
     7.49268    -13.78317   78216.00000
     7.49268    -13.70364   78317.00000
     7.49268    -13.57199   78416.00000
     7.49268    -13.52782   78516.00000
     7.49268    -13.49052   78617.00000
     7.49268    -13.45912   78716.00000
     7.49268    -13.43159   78816.00000
     7.49268    -13.40577   78917.00000
    -7.49268     14.97380   80691.00000
    -7.49268     15.39900   80793.00000
    -7.49268     15.38419   80892.00000
    -7.49268     15.28594   80992.00000
    -7.49268     15.21570   81093.00000
    -7.49268     15.16202   81192.00000
    -7.49268     15.11634   81292.00000
    -7.49268     15.04391   81393.00000
    -7.49268     15.01425   81492.00000
    -7.49268     14.98788   81592.00000
    -0.00488      0.09213   82670.00000
    -0.00488     -0.29281   82770.00000
    -0.00488     -0.37948   82870.00000
    -0.00488     -0.30819   82971.00000
    -0.00488     -0.28093   83070.00000
    -0.00488     -0.25905   83170.00000
    -0.00488     -0.24202   83271.00000
    -0.00488     -0.22728   83370.00000
    -0.00488     -0.21515   83470.00000
    -0.00488     -0.20453   83571.00000
     7.99316    -14.22395   84395.00000
     7.99316    -14.84785   84496.00000
     7.99316    -14.91530   84597.00000
     7.99316    -14.81535   84696.00000
     7.99316    -14.73938   84797.00000
     7.99316    -14.68465   84896.00000
     7.99316    -14.59963   84996.00000
     7.99316    -14.56616   85097.00000
     7.99316    -14.53606   85196.00000
     7.99316    -14.50905   85296.00000
    -7.98828     16.10955   87103.00000
    -7.98828     16.59851   87203.00000
    -7.98828     16.59407   87303.00000
    -7.98828     16.48893   87404.00000
    -7.98828     16.41202   87503.00000
    -7.98828     16.35221   87603.00000
    -7.98828     16.30217   87704.00000
    -7.98828     16.22486   87803.00000
    -7.98828     16.19163   87903.00000
    -7.98828     16.16194   88004.00000
    -0.00488      0.21540   89097.00000
    -0.00488     -0.26042   89199.00000
    -0.00488     -0.38305   89298.00000
    -0.00488     -0.33944   89398.00000
    -0.00488     -0.30943   89499.00000
    -0.00488     -0.28455   89598.00000
    -0.00488     -0.26677   89698.00000
    -0.00488     -0.25199   89799.00000
    -0.00488     -0.23811   89898.00000
    -0.00488     -0.21606   89998.00000
     8.49365    -14.83545   90848.00000
     8.49365    -15.84361   90949.00000
     8.49365    -16.04225   91048.00000
     8.49365    -15.94189   91148.00000
     8.49365    -15.87405   91249.00000
     8.49365    -15.82064   91348.00000
     8.49365    -15.77415   91448.00000
     8.49365    -15.73652   91549.00000
     8.49365    -15.70315   91648.00000
     8.49365    -15.64369   91748.00000
    -8.49121     17.38406   93597.00000
    -8.49121     17.89568   93698.00000
    -8.49121     17.88725   93799.00000
    -8.49121     17.77316   93898.00000
    -8.49121     17.69038   93998.00000
    -8.49121     17.62576   94099.00000
    -8.49121     17.57238   94198.00000
    -8.49121     17.48764   94298.00000
    -8.49121     17.45222   94399.00000
    -8.49121     17.42018   94498.00000
    -0.00488     -0.22538   95617.00000
    -0.00488     -0.41930   95717.00000
    -0.00488     -0.41898   95818.00000
    -0.00488     -0.37351   95918.00000
    -0.00488     -0.33896   96019.00000
    -0.00488     -0.31308   96118.00000
    -0.00488     -0.29306   96218.00000
    -0.00488     -0.26253   96319.00000
    -0.00488     -0.24983   96417.00000
    -0.00488     -0.23835   96518.00000
     8.99414    -16.62421   97404.00000
     8.99414    -17.24913   97505.00000
     8.99414    -17.31843   97606.00000
     8.99414    -17.20326   97705.00000
     8.99414    -17.04536   97805.00000
     8.99414    -16.99105   97906.00000
     8.99414    -16.94462   98005.00000
     8.99414    -16.90461   98105.00000
     8.99414    -16.86960   98206.00000
     8.99414    -16.83809   98305.00000
    -8.99414     18.69176  100196.00000
    -8.99414     19.25738  100298.00000
    -8.99414     19.28559  100397.00000
    -8.99414     19.16699  100498.00000
    -8.99414     19.07398  100597.00000
    -8.99414     19.00487  100697.00000
    -8.99414     18.89838  100798.00000
    -8.99414     18.85415  100897.00000
    -8.99414     18.81438  100997.00000
    -8.99414     18.78016  101098.00000
    -0.00488     -0.09593  102223.00000
    -0.00488     -0.40793  102323.00000
    -0.00488     -0.45569  102424.00000
    -0.00488     -0.40901  102523.00000
    -0.00488     -0.36932  102623.00000
    -0.00488     -0.31826  102724.00000
    -0.00488     -0.29933  102823.00000
    -0.00488     -0.28358  102923.00000
    -0.00488     -0.27009  103024.00000
    -0.00488     -0.25769  103123.00000
     9.49463    -17.32969  104004.00000
     9.49463    -18.34036  104104.00000
     9.49463    -18.57494  104204.00000
     9.49463    -18.34825  104305.00000
     9.49463    -18.26869  104404.00000
     9.49463    -18.20583  104504.00000
     9.49463    -18.15393  104605.00000
     9.49463    -18.10717  104704.00000
     9.49463    -18.06619  104804.00000
     9.49463    -18.02969  104905.00000
    -9.49219     19.31819  106814.00000
    -9.49219     20.50884  106914.00000
    -9.49219     20.81933  107014.00000
    -9.49219     20.59370  107115.00000
    -9.49219     20.50730  107214.00000
    -9.49219     20.43877  107314.00000
    -9.49219     20.38020  107415.00000
    -9.49219     20.32881  107514.00000
    -9.49219     20.28480  107614.00000
    -9.49219     20.24561  107715.00000
    -0.00488     -0.29308  108871.00000
    -0.00488     -0.47168  108971.00000
    -0.00488     -0.46323  109071.00000
    -0.00488     -0.41449  109172.00000
    -0.00488     -0.37880  109271.00000
    -0.00488     -0.35182  109371.00000
    -0.00488     -0.33001  109472.00000
    -0.00488     -0.29619  109571.00000
    -0.00488     -0.28287  109672.00000
    -0.00488     -0.27126  109771.00000
     9.99512    -18.64280  110681.00000
     9.99512    -19.59574  110783.00000
     9.99512    -19.80781  110882.00000
     9.99512    -19.56813  110982.00000
     9.99512    -19.48101  111083.00000
     9.99512    -19.41017  111182.00000
     9.99512    -19.35263  111282.00000
     9.99512    -19.30308  111383.00000
     9.99512    -19.25845  111482.00000
     9.99512    -19.22020  111582.00000
    -9.99512     21.15227  113566.00000
    -9.99512     22.21543  113666.00000
    -9.99512     22.44233  113767.00000
    -9.99512     22.31987  113866.00000
    -9.99512     22.10664  113966.00000
    -9.99512     22.03378  114067.00000
    -9.99512     21.97064  114166.00000
    -9.99512     21.91664  114266.00000
    -9.99512     21.87044  114367.00000
    -9.99512     21.82806  114466.00000
    -0.00488     -0.27099  115659.00000
    -0.00488     -0.48146  115759.00000
    -0.00488     -0.49851  115860.00000
    -0.00488     -0.45072  115959.00000
    -0.00488     -0.41147  116059.00000
    -0.00488     -0.36024  116160.00000
    -0.00488     -0.33990  116259.00000
    -0.00488     -0.32321  116359.00000
    -0.00488     -0.30789  116460.00000
    -0.00488     -0.29641  116559.00000
    10.49316    -20.43235  117500.00000
    10.49316    -20.98003  117601.00000
    10.49316    -20.98447  117702.00000
    10.49316    -20.83231  117801.00000
    10.49316    -20.71685  117901.00000
    10.49316    -20.56005  118002.00000
    10.49316    -20.49897  118101.00000
    10.49316    -20.44705  118201.00000
    10.49316    -20.40147  118302.00000
    10.49316    -20.35971  118401.00000
   -10.49072     23.29383  120396.00000
   -10.49072     24.10407  120497.00000
   -10.49072     24.18606  120598.00000
   -10.49072     24.03521  120697.00000
   -10.49072     23.91310  120797.00000
   -10.49072     23.74320  120898.00000
   -10.49072     23.67858  120997.00000
   -10.49072     23.62258  121097.00000
   -10.49072     23.57357  121198.00000
   -10.49072     23.52916  121297.00000
    -0.00488     -0.31580  122478.00000
    -0.00488     -0.51791  122579.00000
    -0.00488     -0.51650  122679.00000
    -0.00488     -0.46458  122780.00000
    -0.00488     -0.42535  122879.00000
    -0.00488     -0.39582  122979.00000
    -0.00488     -0.37283  123080.00000
    -0.00488     -0.33636  123179.00000
    -0.00488     -0.32250  123279.00000
    -0.00488     -0.30902  123380.00000
    10.99365    -21.78077  124326.00000
    10.99365    -22.20053  124426.00000
    10.99365    -22.11730  124527.00000
    10.99365    -21.94356  124626.00000
    10.99365    -21.82459  124726.00000
    10.99365    -21.73336  124827.00000
    10.99365    -21.65839  124926.00000
    10.99365    -21.53785  125026.00000
    10.99365    -21.48814  125127.00000
    10.99365    -21.44391  125226.00000
   -10.99365     24.45733  127270.00000
   -10.99365     25.81574  127370.00000
   -10.99365     26.14289  127471.00000
   -10.99365     25.85129  127570.00000
   -10.99365     25.74012  127670.00000
   -10.99365     25.65086  127771.00000
   -10.99365     25.57557  127870.00000
   -10.99365     25.51082  127970.00000
   -10.99365     25.45484  128071.00000
   -10.99365     25.40435  128170.00000
    -0.00488     -0.12405  129400.00000
    -0.00488     -0.55773  129501.00000
    -0.00488     -0.52282  129602.00000
    -0.00488     -0.47411  129701.00000
    -0.00488     -0.43872  129801.00000
    -0.00488     -0.41155  129902.00000
    -0.00488     -0.38861  130001.00000
    -0.00488     -0.36962  130101.00000
    -0.00488     -0.33966  130202.00000
    -0.00488     -0.32645  130301.00000
    10.98877    -20.53612  131248.00000
    10.98877    -22.01964  131349.00000
    10.98877    -21.91320  131448.00000
    10.98877    -21.75672  131548.00000
    10.98877    -21.64858  131649.00000
    10.98877    -21.56548  131748.00000
    10.98877    -21.49643  131848.00000
    10.98877    -21.43765  131949.00000
    10.98877    -21.33969  132048.00000
    10.98877    -21.29914  132148.00000
   -10.99121     24.67404  134186.00000
   -10.99121     25.79178  134287.00000
   -10.99121     25.98415  134388.00000
   -10.99121     25.82606  134487.00000
   -10.99121     25.58783  134587.00000
   -10.99121     25.50614  134688.00000
   -10.99121     25.43658  134787.00000
   -10.99121     25.37636  134888.00000
   -10.99121     25.32322  134987.00000
   -10.99121     25.27602  135087.00000
    -0.00488     -0.24365  136317.00000
    -0.00488     -0.51696  136417.00000
    -0.00488     -0.52220  136518.00000
    -0.00488     -0.47633  136617.00000
    -0.00488     -0.44243  136717.00000
    -0.00488     -0.41568  136818.00000
    -0.00488     -0.39426  136917.00000
    -0.00488     -0.37640  137017.00000
    -0.00488     -0.36035  137118.00000
    -0.00488     -0.34652  137217.00000
    10.49072    -19.63397  138158.00000
    10.49072    -20.42876  138260.00000
    10.49072    -20.56846  138359.00000
    10.49072    -20.30562  138459.00000
    10.49072    -20.21558  138560.00000
    10.49072    -20.14537  138659.00000
    10.49072    -20.08874  138759.00000
    10.49072    -20.03833  138860.00000
    10.49072    -19.99359  138959.00000
    10.49072    -19.95475  139059.00000
   -10.49072     22.38657  141055.00000
   -10.49072     23.53094  141155.00000
   -10.49072     23.80331  141256.00000
   -10.49072     23.55412  141355.00000
   -10.49072     23.46022  141455.00000
   -10.49072     23.38333  141556.00000
   -10.49072     23.31876  141655.00000
   -10.49072     23.26460  141755.00000
   -10.49072     23.21746  141856.00000
   -10.49072     23.17418  141955.00000
    -0.00488     -0.22763  143137.00000
    -0.00488     -0.52001  143237.00000
    -0.00488     -0.56440  143338.00000
    -0.00488     -0.51383  143437.00000
    -0.00488     -0.46895  143537.00000
    -0.00488     -0.40992  143638.00000
    -0.00488     -0.38875  143737.00000
    -0.00488     -0.37097  143837.00000
    -0.00488     -0.35535  143938.00000
    -0.00488     -0.34079  144037.00000
     9.99512    -18.77998  144948.00000
     9.99512    -19.20558  145049.00000
     9.99512    -19.15877  145148.00000
     9.99512    -19.01994  145248.00000
     9.99512    -18.92681  145349.00000
     9.99512    -18.85468  145448.00000
     9.99512    -18.79560  145548.00000
     9.99512    -18.70383  145649.00000
     9.99512    -18.66544  145748.00000
     9.99512    -18.63145  145848.00000
    -9.99268     19.96078  147831.00000
    -9.99268     21.86928  147932.00000
    -9.99268     21.81603  148033.00000
    -9.99268     21.67812  148132.00000
    -9.99268     21.58127  148232.00000
    -9.99268     21.50595  148333.00000
    -9.99268     21.44455  148432.00000
    -9.99268     21.39108  148532.00000
    -9.99268     21.30547  148633.00000
    -9.99268     21.26784  148732.00000
    -0.00488     -0.19561  149925.00000
    -0.00488     -0.49594  150026.00000
    -0.00488     -0.51620  150127.00000
    -0.00488     -0.47001  150226.00000
    -0.00488     -0.43721  150326.00000
    -0.00488     -0.41079  150427.00000
    -0.00488     -0.38915  150526.00000
    -0.00488     -0.37191  150626.00000
    -0.00488     -0.35695  150727.00000
    -0.00488     -0.33126  150826.00000
     9.49463    -17.36665  151707.00000
     9.49463    -17.87751  151808.00000
     9.49463    -17.85155  151908.00000
     9.49463    -17.71731  152009.00000
     9.49463    -17.62770  152108.00000
     9.49463    -17.56097  152208.00000
     9.49463    -17.50597  152309.00000
     9.49463    -17.41892  152408.00000
     9.49463    -17.38386  152509.00000
     9.49463    -17.35125  152608.00000
    -9.49463     19.43965  154518.00000
    -9.49463     20.10313  154619.00000
    -9.49463     20.12239  154719.00000
    -9.49463     19.98872  154820.00000
    -9.49463     19.89338  154919.00000
    -9.49463     19.81933  155019.00000
    -9.49463     19.75860  155120.00000
    -9.49463     19.66253  155219.00000
    -9.49463     19.62352  155319.00000
    -9.49463     19.58816  155420.00000
    -0.00488     -0.20766  156575.00000
    -0.00488     -0.49848  156675.00000
    -0.00488     -0.54624  156777.00000
    -0.00488     -0.49937  156876.00000
    -0.00488     -0.42443  156976.00000
    -0.00488     -0.39880  157077.00000
    -0.00488     -0.37791  157176.00000
    -0.00488     -0.36068  157276.00000
    -0.00488     -0.34674  157377.00000
    -0.00488     -0.33334  157476.00000
     8.99414    -15.40993  158363.00000
     8.99414    -16.61062  158463.00000
     8.99414    -16.53401  158563.00000
     8.99414    -16.42400  158664.00000
     8.99414    -16.35060  158763.00000
     8.99414    -16.29303  158863.00000
     8.99414    -16.24546  158964.00000
     8.99414    -16.20318  159063.00000
     8.99414    -16.13526  159163.00000
     8.99414    -16.10725  159264.00000
    -8.99170     17.47942  161155.00000
    -8.99170     18.37320  161256.00000
    -8.99170     18.57714  161355.00000
    -8.99170     18.37752  161455.00000
    -8.99170     18.30104  161556.00000
    -8.99170     18.23961  161655.00000
    -8.99170     18.18947  161755.00000
    -8.99170     18.14586  161856.00000
    -8.99170     18.10623  161955.00000
    -8.99170     18.07195  162055.00000
    -0.00488      0.02478  163181.00000
    -0.00488     -0.41036  163282.00000
    -0.00488     -0.50564  163382.00000
    -0.00488     -0.45574  163483.00000
    -0.00488     -0.42003  163582.00000
    -0.00488     -0.39382  163682.00000
    -0.00488     -0.37237  163783.00000
    -0.00488     -0.35444  163882.00000
    -0.00488     -0.33842  163982.00000
    -0.00488     -0.31372  164083.00000
     8.49365    -14.18394  164932.00000
     8.49365    -15.12351  165032.00000
     8.49365    -15.28776  165132.00000
     8.49365    -15.18789  165233.00000
     8.49365    -15.12005  165332.00000
     8.49365    -15.06626  165432.00000
     8.49365    -15.02299  165533.00000
     8.49365    -14.98617  165632.00000
     8.49365    -14.95277  165732.00000
     8.49365    -14.92290  165833.00000
    -8.49121     16.63120  167681.00000
    -8.49121     17.11874  167781.00000
    -8.49121     17.10672  167882.00000
    -8.49121     16.99263  167981.00000
    -8.49121     16.91040  168082.00000
    -8.49121     16.84813  168181.00000
    -8.49121     16.79688  168281.00000
    -8.49121     16.71570  168382.00000
    -8.49121     16.68031  168481.00000
    -8.49121     16.64811  168581.00000
    -0.00488     -0.34914  169707.00000
    -0.00488     -0.51464  169808.00000
    -0.00488     -0.50461  169908.00000
    -0.00488     -0.45501  170009.00000
    -0.00488     -0.41790  170108.00000
    -0.00488     -0.39110  170208.00000
    -0.00488     -0.37035  170309.00000
    -0.00488     -0.33669  170408.00000
    -0.00488     -0.32250  170508.00000
    -0.00488     -0.30975  170609.00000
     7.99316    -12.82518  171439.00000
     7.99316    -14.16217  171541.00000
     7.99316    -14.10809  171640.00000
     7.99316    -14.01088  171740.00000
     7.99316    -13.94553  171841.00000
     7.99316    -13.89491  171940.00000
     7.99316    -13.85360  172040.00000
     7.99316    -13.81805  172141.00000
     7.99316    -13.78633  172240.00000
     7.99316    -13.73384  172340.00000
    -7.99072     14.63654  174147.00000
    -7.99072     15.57662  174247.00000
    -7.99072     15.82487  174347.00000
    -7.99072     15.64862  174448.00000
    -7.99072     15.57868  174547.00000
    -7.99072     15.52510  174647.00000
    -7.99072     15.47958  174748.00000
    -7.99072     15.43874  174847.00000
    -7.99072     15.40475  174947.00000
    -7.99072     15.37479  175048.00000
    -0.00488     -0.16071  176141.00000
    -0.00488     -0.45618  176243.00000
    -0.00488     -0.50308  176342.00000
    -0.00488     -0.45809  176442.00000
    -0.00488     -0.38983  176543.00000
    -0.00488     -0.36673  176642.00000
    -0.00488     -0.34644  176743.00000
    -0.00488     -0.33082  176842.00000
    -0.00488     -0.31670  176942.00000
    -0.00488     -0.30378  177043.00000
     7.49268    -11.63780  177855.00000
     7.49268    -13.00448  177956.00000
     7.49268    -12.96639  178056.00000
     7.49268    -12.87286  178157.00000
     7.49268    -12.81132  178256.00000
     7.49268    -12.76364  178356.00000
     7.49268    -12.72390  178457.00000
     7.49268    -12.69099  178556.00000
     7.49268    -12.63613  178656.00000
     7.49268    -12.61252  178757.00000
    -7.49023     13.87668  180525.00000
    -7.49023     14.50663  180627.00000
    -7.49023     14.58708  180726.00000
    -7.49023     14.48639  180826.00000
    -7.49023     14.40708  180927.00000
    -7.49023     14.30180  181026.00000
    -7.49023     14.26049  181126.00000
    -7.49023     14.22572  181227.00000
    -7.49023     14.19571  181326.00000
    -7.49023     14.16807  181426.00000
    -0.00488      0.12401  182510.00000
    -0.00488     -0.48524  182610.00000
    -0.00488     -0.46504  182710.00000
    -0.00488     -0.41803  182811.00000
    -0.00488     -0.38396  182910.00000
    -0.00488     -0.35914  183009.00000
    -0.00488     -0.33966  183111.00000
    -0.00488     -0.32312  183210.00000
    -0.00488     -0.29676  183310.00000
    -0.00488     -0.28555  183411.00000
     6.99219    -11.34563  184199.00000
     6.99219    -11.85952  184300.00000
     6.99219    -11.90220  184399.00000
     6.99219    -11.81497  184499.00000
     6.99219    -11.74883  184600.00000
     6.99219    -11.70118  184699.00000
     6.99219    -11.62945  184799.00000
     6.99219    -11.60133  184900.00000
     6.99219    -11.57596  184999.00000
     6.99219    -11.55241  185099.00000
    -6.99219     12.93312  186826.00000
    -6.99219     13.40845  186927.00000
    -6.99219     13.42723  187028.00000
    -6.99219     13.33284  187127.00000
    -6.99219     13.26370  187227.00000
    -6.99219     13.21194  187328.00000
    -6.99219     13.13489  187427.00000
    -6.99219     13.10210  187527.00000
    -6.99219     13.07354  187628.00000
    -6.99219     13.04890  187727.00000
    -0.00488     -0.10203  188792.00000
    -0.00488     -0.40960  188892.00000
    -0.00488     -0.46285  188993.00000
    -0.00488     -0.42392  189092.00000
    -0.00488     -0.35725  189191.00000
    -0.00488     -0.33598  189293.00000
    -0.00488     -0.31880  189392.00000
    -0.00488     -0.30251  189492.00000
    -0.00488     -0.28971  189593.00000
    -0.00488     -0.27896  189692.00000
     6.49170     -9.96517  190475.00000
     6.49170    -10.68443  190576.00000
     6.49170    -10.79646  190675.00000
     6.49170    -10.72355  190775.00000
     6.49170    -10.67414  190876.00000
     6.49170    -10.63529  190975.00000
     6.49170    -10.60311  191075.00000
     6.49170    -10.57537  191176.00000
     6.49170    -10.55057  191275.00000
     6.49170    -10.52906  191375.00000
    -6.49414     12.01000  193054.00000
    -6.49414     12.34596  193154.00000
    -6.49414     12.33154  193255.00000
    -6.49414     12.24666  193354.00000
    -6.49414     12.18604  193454.00000
    -6.49414     12.14070  193555.00000
    -6.49414     12.10239  193654.00000
    -6.49414     12.04153  193754.00000
    -6.49414     12.01651  193855.00000
    -6.49414     11.99385  193954.00000
    -0.00488     -0.21531  194983.00000
    -0.00488     -0.43029  195083.00000
    -0.00488     -0.43175  195184.00000
    -0.00488     -0.38545  195283.00000
    -0.00488     -0.35338  195383.00000
    -0.00488     -0.32947  195484.00000
    -0.00488     -0.30981  195583.00000
    -0.00488     -0.27896  195683.00000
    -0.00488     -0.26839  195784.00000
    -0.00488     -0.25726  195883.00000
     5.99121     -8.62157  196636.00000
     5.99121     -9.83234  196736.00000
     5.99121     -9.80470  196836.00000
     5.99121     -9.73054  196937.00000
     5.99121     -9.68097  197036.00000
     5.99121     -9.64266  197136.00000
     5.99121     -9.61111  197237.00000
     5.99121     -9.58434  197336.00000
     5.99121     -9.53976  197437.00000
     5.99121     -9.52145  197536.00000
    -5.99365     10.10618  199183.00000
    -5.99365     11.32506  199284.00000
    -5.99365     11.29758  199383.00000
    -5.99365     11.22026  199483.00000
    -5.99365     11.16639  199584.00000
    -5.99365     11.12476  199683.00000
    -5.99365     11.08981  199784.00000
    -5.99365     11.06025  199883.00000
    -5.99365     11.01035  199983.00000
    -5.99365     10.98971  200084.00000
    -0.00488      0.09502  201080.00000
    -0.00488     -0.32326  201181.00000
    -0.00488     -0.42127  201282.00000
    -0.00488     -0.38621  201381.00000
    -0.00488     -0.32042  201481.00000
    -0.00488     -0.29957  201582.00000
    -0.00488     -0.28209  201681.00000
    -0.00488     -0.26758  201781.00000
    -0.00488     -0.25607  201882.00000
    -0.00488     -0.24573  201981.00000
     5.49316     -8.44788  202702.00000
     5.49316     -8.82883  202803.00000
     5.49316     -8.83102  202904.00000
     5.49316     -8.75894  203003.00000
     5.49316     -8.71020  203103.00000
     5.49316     -8.67400  203204.00000
     5.49316     -8.64434  203303.00000
     5.49316     -8.59628  203403.00000
     5.49316     -8.57669  203504.00000
     5.49316     -8.55911  203603.00000
    -5.49316      9.80436  205172.00000
    -5.49316     10.28958  205272.00000
    -5.49316     10.32733  205373.00000
    -5.49316     10.25093  205472.00000
    -5.49316     10.19541  205572.00000
    -5.49316     10.15308  205673.00000
    -5.49316     10.08854  205772.00000
    -5.49316     10.06441  205872.00000
    -5.49316     10.04215  205973.00000
    -5.49316     10.02100  206072.00000
    -0.00488      0.11358  207045.00000
    -0.00488     -0.29862  207146.00000
    -0.00488     -0.39404  207246.00000
    -0.00488     -0.36141  207347.00000
    -0.00488     -0.29895  207446.00000
    -0.00488     -0.27920  207546.00000
    -0.00488     -0.26407  207647.00000
    -0.00488     -0.24978  207746.00000
    -0.00488     -0.23976  207847.00000
    -0.00488     -0.22900  207946.00000
     4.99512     -6.86819  208649.00000
     4.99512     -7.66165  208750.00000
     4.99512     -7.85898  208849.00000
     4.99512     -7.79727  208949.00000
     4.99512     -7.75567  209050.00000
     4.99512     -7.72390  209149.00000
     4.99512     -7.69796  209249.00000
     4.99512     -7.67532  209350.00000
     4.99512     -7.65617  209449.00000
     4.99512     -7.62346  209549.00000
    -4.99512      8.45573  211099.00000
    -4.99512      9.19041  211200.00000
    -4.99512      9.37403  211300.00000
    -4.99512      9.25998  211401.00000
    -4.99512      9.21662  211500.00000
    -4.99512      9.18287  211600.00000
    -4.99512      9.15516  211701.00000
    -4.99512      9.12987  211800.00000
    -4.99512      9.10815  211901.00000
    -4.99512      9.08905  212000.00000
    -0.00488      0.35434  212943.00000
    -0.00488     -0.19561  213044.00000
    -0.00488     -0.34501  213145.00000
    -0.00488     -0.30732  213244.00000
    -0.00488     -0.28109  213344.00000
    -0.00488     -0.25999  213445.00000
    -0.00488     -0.24338  213544.00000
    -0.00488     -0.23025  213644.00000
    -0.00488     -0.21909  213745.00000
    -0.00488     -0.20980  213844.00000
     4.49463     -6.05119  214523.00000
     4.49463     -6.76196  214623.00000
     4.49463     -6.95329  214724.00000
     4.49463     -6.85892  214823.00000
     4.49463     -6.82256  214923.00000
     4.49463     -6.79457  215024.00000
     4.49463     -6.77074  215123.00000
     4.49463     -6.75010  215223.00000
     4.49463     -6.73257  215324.00000
     4.49463     -6.71752  215423.00000
    -4.49463      7.44308  216900.00000
    -4.49463      8.20956  217000.00000
    -4.49463      8.38751  217100.00000
    -4.49463      8.32943  217201.00000
    -4.49463      8.28939  217300.00000
    -4.49463      8.25722  217400.00000
    -4.49463      8.22985  217501.00000
    -4.49463      8.20867  217600.00000
    -4.49463      8.18963  217700.00000
    -4.49463      8.15351  217801.00000
    -0.00488      0.24928  218724.00000
    -0.00488     -0.21828  218825.00000
    -0.00488     -0.33685  218924.00000
    -0.00488     -0.31045  219024.00000
    -0.00488     -0.25213  219125.00000
    -0.00488     -0.23462  219224.00000
    -0.00488     -0.21952  219325.00000
    -0.00488     -0.20739  219424.00000
    -0.00488     -0.19761  219524.00000
    -0.00488     -0.18897  219625.00000
     3.99414     -5.57796  220260.00000
     3.99414     -6.00067  220361.00000
     3.99414     -6.03001  220460.00000
     3.99414     -5.97190  220560.00000
     3.99414     -5.93457  220660.00000
     3.99414     -5.90620  220760.00000
     3.99414     -5.88207  220861.00000
     3.99414     -5.84530  220960.00000
     3.99414     -5.83207  221060.00000
     3.99414     -5.81851  221161.00000
    -3.99170      6.78515  222569.00000
    -3.99170      7.39200  222670.00000
    -3.99170      7.50163  222770.00000
    -3.99170      7.44660  222871.00000
    -3.99170      7.39905  222970.00000
    -3.99170      7.33700  223070.00000
    -3.99170      7.31330  223171.00000
    -3.99170      7.29329  223270.00000
    -3.99170      7.27689  223370.00000
    -3.99170      7.26062  223471.00000
    -0.00488      0.53115  224371.00000
    -0.00488     -0.29146  224471.00000
    -0.00488     -0.28949  224571.00000
    -0.00488     -0.25491  224672.00000
    -0.00488     -0.23019  224771.00000
    -0.00488     -0.21266  224872.00000
    -0.00488     -0.19783  224971.00000
    -0.00488     -0.18618  225071.00000
    -0.00488     -0.17608  225172.00000
    -0.00488     -0.15933  225271.00000
     3.49365     -4.69872  225883.00000
     3.49365     -5.11135  225984.00000
     3.49365     -5.14609  226083.00000
     3.49365     -5.09212  226183.00000
     3.49365     -5.05592  226284.00000
     3.49365     -5.03090  226383.00000
     3.49365     -5.01048  226483.00000
     3.49365     -4.97811  226584.00000
     3.49365     -4.96412  226683.00000
     3.49365     -4.95169  226783.00000
    -3.49121      5.37117  228144.00000
    -3.49121      6.57562  228245.00000
    -3.49121      6.56298  228344.00000
    -3.49121      6.50938  228444.00000
    -3.49121      6.47288  228545.00000
    -3.49121      6.44552  228644.00000
    -3.49121      6.42407  228744.00000
    -3.49121      6.40483  228845.00000
    -3.49121      6.38835  228944.00000
    -3.49121      6.36120  229044.00000
    -0.00488      0.03350  229921.00000
    -0.00488     -0.23597  230021.00000
    -0.00488     -0.25877  230122.00000
    -0.00488     -0.22663  230221.00000
    -0.00488     -0.20169  230321.00000
    -0.00488     -0.18383  230422.00000
    -0.00488     -0.16979  230521.00000
    -0.00488     -0.14839  230621.00000
    -0.00488     -0.14012  230722.00000
    -0.00488     -0.13418  230821.00000
     2.99072     -3.08547  231396.00000
     2.99072     -4.27847  231498.00000
     2.99072     -4.28495  231597.00000
     2.99072     -4.23797  231698.00000
     2.99072     -4.20788  231797.00000
     2.99072     -4.18608  231897.00000
     2.99072     -4.16800  231998.00000
     2.99072     -4.15325  232097.00000
     2.99072     -4.12756  232197.00000
     2.99072     -4.11827  232298.00000
    -2.98828      4.34840  233591.00000
    -2.98828      5.65691  233691.00000
    -2.98828      5.66140  233792.00000
    -2.98828      5.61282  233891.00000
    -2.98828      5.57819  233991.00000
    -2.98828      5.55320  234092.00000
    -2.98828      5.53386  234191.00000
    -2.98828      5.51776  234291.00000
    -2.98828      5.48890  234392.00000
    -2.98828      5.47702  234491.00000
    -0.00488      0.55820  235330.00000
    -0.00488     -0.04665  235431.00000
    -0.00488     -0.21825  235530.00000
    -0.00488     -0.17708  235632.00000
    -0.00488     -0.15674  235731.00000
    -0.00488     -0.14291  235831.00000
    -0.00488     -0.13088  235932.00000
    -0.00488     -0.12094  236031.00000
    -0.00488     -0.11249  236131.00000
    -0.00488     -0.10457  236232.00000
     2.49512     -3.01121  236763.00000
     2.49512     -3.43275  236865.00000
     2.49512     -3.47908  236964.00000
     2.49512     -3.43651  237064.00000
     2.49512     -3.40917  237165.00000
     2.49512     -3.38972  237264.00000
     2.49512     -3.37205  237364.00000
     2.49512     -3.34668  237465.00000
     2.49512     -3.33669  237564.00000
     2.49512     -3.32775  237664.00000
    -2.49268      4.23644  238873.00000
    -2.49268      4.72710  238974.00000
    -2.49268      4.78529  239074.00000
    -2.49268      4.73933  239175.00000
    -2.49268      4.70759  239274.00000
    -2.49268      4.68452  239374.00000
    -2.49268      4.66620  239475.00000
    -2.49268      4.63754  239574.00000
    -2.49268      4.62549  239674.00000
    -2.49268      4.61555  239775.00000
    -0.00488      0.47005  240583.00000
    -0.00488     -0.05159  240683.00000
    -0.00488     -0.17386  240783.00000
    -0.00488     -0.15558  240884.00000
    -0.00488     -0.11265  240983.00000
    -0.00488     -0.10046  241083.00000
    -0.00488     -0.09012  241184.00000
    -0.00488     -0.08172  241283.00000
    -0.00488     -0.07480  241384.00000
    -0.00488     -0.06832  241483.00000
     1.99219     -1.97822  241986.00000
     1.99219     -2.55411  242086.00000
     1.99219     -2.71517  242186.00000
     1.99219     -2.68975  242287.00000
     1.99219     -2.63964  242387.00000
     1.99219     -2.62424  242486.00000
     1.99219     -2.61268  242587.00000
     1.99219     -2.60119  242686.00000
     1.99219     -2.59220  242786.00000
     1.99219     -2.58326  242887.00000
    -1.99219      2.78286  244026.00000
    -1.99219      3.60655  244128.00000
    -1.99219      3.90364  244227.00000
    -1.99219      3.86523  244328.00000
    -1.99219      3.84116  244427.00000
    -1.99219      3.82289  244527.00000
    -1.99219      3.80879  244628.00000
    -1.99219      3.79653  244727.00000
    -1.99219      3.78532  244827.00000
    -1.99219      3.76700  244928.00000
    -0.00488      0.87657  245686.00000
    -0.00488      0.11336  245788.00000
    -0.00488     -0.10916  245887.00000
    -0.00488     -0.08707  245987.00000
    -0.00488     -0.07102  246088.00000
    -0.00488     -0.05878  246187.00000
    -0.00488     -0.04835  246287.00000
    -0.00488     -0.04068  246388.00000
    -0.00488     -0.03503  246487.00000
    -0.00488     -0.02936  246587.00000
     1.48926     -1.52479  247047.00000
     1.48926     -1.93570  247148.00000
     1.48926     -2.00294  247247.00000
     1.48926     -1.97014  247347.00000
     1.48926     -1.94910  247448.00000
     1.48926     -1.93467  247547.00000
     1.48926     -1.91279  247647.00000
     1.48926     -1.90404  247748.00000
     1.48926     -1.89742  247847.00000
     1.48926     -1.89145  247947.00000
    -1.49414      2.19511  249009.00000
    -1.49414      2.86960  249110.00000
    -1.49414      3.07500  249209.00000
    -1.49414      3.06044  249309.00000
    -1.49414      3.01233  249410.00000
    -1.49414      2.99784  249509.00000
    -1.49414      2.98750  249609.00000
    -1.49414      2.97729  249710.00000
    -1.49414      2.96786  249809.00000
    -1.49414      2.95975  249909.00000
    -0.00488      1.44995  250626.00000
    -0.00488     -0.01067  250728.00000
    -0.00488     -0.05578  250827.00000
    -0.00488     -0.03417  250927.00000
    -0.00488     -0.01777  251028.00000
    -0.00488     -0.00645  251127.00000
    -0.00488      0.00195  251227.00000
    -0.00488      0.00849  251328.00000
    -0.00488      0.01946  251427.00000
    -0.00488      0.02410  251527.00000
     0.99365     -0.44051  251926.00000
     0.99365     -1.03679  252026.00000
     0.99365     -1.32480  252126.00000
     0.99365     -1.30000  252227.00000
     0.99365     -1.28463  252326.00000
     0.99365     -1.27323  252426.00000
     0.99365     -1.26466  252527.00000
     0.99365     -1.25894  252626.00000
     0.99365     -1.25186  252726.00000
     0.99365     -1.24008  252827.00000
    -0.99365      1.23061  253773.00000
    -0.99365      1.90299  253873.00000
    -0.99365      2.25211  253974.00000
    -0.99365      2.22575  254073.00000
    -0.99365      2.20932  254173.00000
    -0.99365      2.19752  254274.00000
    -0.99365      2.18757  254373.00000
    -0.99365      2.17966  254473.00000
    -0.99365      2.17399  254574.00000
    -0.99365      2.16131  254673.00000
    -0.00488      1.25325  255342.00000
    -0.00488      0.35934  255443.00000
    -0.00488      0.05012  255543.00000
    -0.00488      0.04890  255644.00000
    -0.00488      0.06014  255743.00000
    -0.00488      0.06917  255843.00000
    -0.00488      0.07627  255944.00000
    -0.00488      0.08078  256043.00000
    -0.00488      0.08492  256143.00000
    -0.00488      0.08851  256244.00000
     0.49316     -0.00159  256580.00000
     0.49316     -0.37562  256681.00000
     0.49316     -0.66781  256781.00000
     0.49316     -0.64742  256882.00000
     0.49316     -0.63553  256981.00000
     0.49316     -0.62724  257081.00000
     0.49316     -0.62178  257182.00000
     0.49316     -0.61689  257281.00000
     0.49316     -0.61159  257381.00000
     0.49316     -0.60481  257482.00000
    -0.49072      0.79588  258299.00000
    -0.49072      1.24233  258400.00000
    -0.49072      1.42304  258501.00000
    -0.49072      1.41380  258600.00000
    -0.49072      1.39773  258700.00000
    -0.49072      1.38133  258801.00000
    -0.49072      1.37503  258900.00000
    -0.49072      1.37014  259000.00000
    -0.49072      1.36617  259101.00000
    -0.49072      1.36304  259200.00000
    -0.00488      1.08481  259801.00000
    -0.00488      0.48615  259903.00000
    -0.00488      0.19106  260002.00000
    -0.00488      0.17350  260102.00000
    -0.00488      0.18854  260203.00000
    -0.00488      0.19341  260302.00000
    -0.00488      0.19762  260402.00000
    -0.00488      0.20213  260503.00000
    -0.00488      0.20486  260602.00000
    -0.00488      0.20567  260701.00000