# Acquired on 07/08/2024 17:02:26 
# SPIDER: CNT0771454A-1_PostRodaggio_2024-08-07
# TRACKING MEASUREMENT

  # pos [mm]    force [N]     time [ms]
     0.49316     -0.06024     242.00000
     0.49316     -0.18665     343.00000
     0.49316     -0.26864     444.00000
     0.49316     -0.27226     543.00000
     0.49316     -0.26926     644.00000
     0.49316     -0.26697     743.00000
     0.49316     -0.26480     843.00000
     0.49316     -0.26275     944.00000
     0.49316     -0.26121    1043.00000
     0.49316     -0.25897    1143.00000
    -0.49072      0.25956    1949.00000
    -0.49072      0.39426    2049.00000
    -0.49072      0.44276    2150.00000
    -0.49072      0.43805    2249.00000
    -0.49072      0.43165    2349.00000
    -0.49072      0.42738    2449.00000
    -0.49072      0.42157    2549.00000
    -0.49072      0.42039    2650.00000
    -0.49072      0.41928    2749.00000
    -0.49072      0.41750    2849.00000
    -0.00732      0.28950    3451.00000
    -0.00732      0.11449    3552.00000
    -0.00732      0.03766    3651.00000
    -0.00732      0.03269    3751.00000
    -0.00732      0.03653    3852.00000
    -0.00732      0.03966    3951.00000
    -0.00732      0.04106    4051.00000
    -0.00732      0.04301    4152.00000
    -0.00732      0.04528    4251.00000
    -0.00732      0.04649    4351.00000
     0.98877     -0.32608    4756.00000
     0.98877     -0.50040    4857.00000
     0.98877     -0.54252    4958.00000
     0.98877     -0.53526    5057.00000
     0.98877     -0.52666    5157.00000
     0.98877     -0.52167    5258.00000
     0.98877     -0.51537    5357.00000
     0.98877     -0.51283    5457.00000
     0.98877     -0.50959    5558.00000
     0.98877     -0.50792    5657.00000
    -0.99365      0.52475    6597.00000
    -0.99365      0.71447    6697.00000
    -0.99365      0.77267    6798.00000
    -0.99365      0.76788    6897.00000
    -0.99365      0.75927    6997.00000
    -0.99365      0.75338    7098.00000
    -0.99365      0.74489    7197.00000
    -0.99365      0.74219    7297.00000
    -0.99365      0.73887    7398.00000
    -0.99365      0.73757    7497.00000
    -0.00732      0.25213    8160.00000
    -0.00732      0.06392    8261.00000
    -0.00732      0.02304    8361.00000
    -0.00732      0.02615    8461.00000
    -0.00732      0.03104    8561.00000
    -0.00732      0.03409    8661.00000
    -0.00732      0.03553    8762.00000
    -0.00732      0.04198    8861.00000
    -0.00732      0.04066    8961.00000
    -0.00732      0.04322    9062.00000
     1.49170     -0.49168    9521.00000
     1.49170     -0.74446    9622.00000
     1.49170     -0.82702    9722.00000
     1.49170     -0.81378    9823.00000
     1.49170     -0.80614    9922.00000
     1.49170     -0.79922   10022.00000
     1.49170     -0.79479   10123.00000
     1.49170     -0.79168   10222.00000
     1.49170     -0.78766   10322.00000
     1.49170     -0.78412   10423.00000
    -1.49414      0.62057   11484.00000
    -1.49414      1.08332   11584.00000
    -1.49414      1.10663   11684.00000
    -1.49414      1.09480   11785.00000
    -1.49414      1.08464   11884.00000
    -1.49414      1.07799   11984.00000
    -1.49414      1.07297   12085.00000
    -1.49414      1.06792   12184.00000
    -1.49414      1.06070   12284.00000
    -1.49414      1.05830   12385.00000
    -0.00732      0.33245   13095.00000
    -0.00732      0.08737   13196.00000
    -0.00732      0.01821   13295.00000
    -0.00732      0.01729   13395.00000
    -0.00732      0.02318   13496.00000
    -0.00732      0.03350   13595.00000
    -0.00732      0.03828   13695.00000
    -0.00732      0.04122   13796.00000
    -0.00732      0.04198   13895.00000
    -0.00732      0.04255   13995.00000
     1.98975     -0.85047   14498.00000
     1.98975     -1.07794   14599.00000
     1.98975     -1.13448   14698.00000
     1.98975     -1.12557   14798.00000
     1.98975     -1.11365   14899.00000
     1.98975     -1.09939   14998.00000
     1.98975     -1.09380   15098.00000
     1.98975     -1.08902   15199.00000
     1.98975     -1.08437   15298.00000
     1.98975     -1.08099   15398.00000
    -1.99463      1.04028   16540.00000
    -1.99463      1.34285   16640.00000
    -1.99463      1.45083   16741.00000
    -1.99463      1.43525   16840.00000
    -1.99463      1.42533   16940.00000
    -1.99463      1.41841   17041.00000
    -1.99463      1.41131   17140.00000
    -1.99463      1.40583   17241.00000
    -1.99463      1.40142   17340.00000
    -1.99463      1.39775   17440.00000
    -0.00732      0.36209   18201.00000
    -0.00732      0.09496   18301.00000
    -0.00732      0.00959   18402.00000
    -0.00732      0.01499   18501.00000
    -0.00732      0.02121   18601.00000
    -0.00732      0.02545   18702.00000
    -0.00732      0.02999   18801.00000
    -0.00732      0.03239   18901.00000
    -0.00732      0.03347   19002.00000
    -0.00732      0.03569   19101.00000
     2.49268     -0.88508   19634.00000
     2.49268     -1.44167   19735.00000
     2.49268     -1.46285   19835.00000
     2.49268     -1.44951   19936.00000
     2.49268     -1.43711   20035.00000
     2.49268     -1.42863   20135.00000
     2.49268     -1.42066   20236.00000
     2.49268     -1.41463   20335.00000
     2.49268     -1.40458   20435.00000
     2.49268     -1.39996   20535.00000
    -2.49512      1.57562   21749.00000
    -2.49512      1.79050   21850.00000
    -2.49512      1.82624   21949.00000
    -2.49512      1.80803   22049.00000
    -2.49512      1.79452   22150.00000
    -2.49512      1.78317   22249.00000
    -2.49512      1.77531   22349.00000
    -2.49512      1.76208   22450.00000
    -2.49512      1.75638   22549.00000
    -2.49512      1.75235   22649.00000
    -0.00732      0.27404   23446.00000
    -0.00732      0.05571   23547.00000
    -0.00732     -0.00773   23648.00000
    -0.00732     -0.00254   23747.00000
    -0.00732      0.01164   23847.00000
    -0.00732      0.01799   23948.00000
    -0.00732      0.02169   24047.00000
    -0.00732      0.02383   24147.00000
    -0.00732      0.02826   24248.00000
    -0.00732      0.03147   24347.00000
     2.99072     -1.54520   24916.00000
     2.99072     -1.77810   25017.00000
     2.99072     -1.82794   25116.00000
     2.99072     -1.81305   25216.00000
     2.99072     -1.79830   25317.00000
     2.99072     -1.78733   25416.00000
     2.99072     -1.77113   25516.00000
     2.99072     -1.76575   25617.00000
     2.99072     -1.75962   25716.00000
     2.99072     -1.75449   25817.00000
    -2.99316      1.98487   27091.00000
    -2.99316      2.18889   27192.00000
    -2.99316      2.21726   27291.00000
    -2.99316      2.19621   27391.00000
    -2.99316      2.18157   27492.00000
    -2.99316      2.16985   27591.00000
    -2.99316      2.15985   27691.00000
    -2.99316      2.14550   27792.00000
    -2.99316      2.13908   27891.00000
    -2.99316      2.13410   27991.00000
    -0.00732      0.36306   28823.00000
    -0.00732      0.09580   28924.00000
    -0.00732     -0.01189   29025.00000
    -0.00732     -0.00105   29124.00000
    -0.00732      0.00662   29224.00000
    -0.00732      0.01256   29325.00000
    -0.00732      0.01651   29424.00000
    -0.00732      0.02026   29524.00000
    -0.00732      0.02358   29625.00000
    -0.00732      0.02874   29724.00000
     3.49121     -2.01769   30335.00000
     3.49121     -2.19421   30437.00000
     3.49121     -2.21177   30536.00000
     3.49121     -2.19365   30636.00000
     3.49121     -2.17792   30737.00000
     3.49121     -2.16582   30836.00000
     3.49121     -2.15550   30937.00000
     3.49121     -2.14207   31036.00000
     3.49121     -2.13481   31136.00000
     3.49121     -2.12794   31237.00000
    -3.49365      2.09339   32596.00000
    -3.49365      2.48217   32697.00000
    -3.49365      2.62700   32796.00000
    -3.49365      2.60309   32896.00000
    -3.49365      2.58672   32997.00000
    -3.49365      2.57553   33096.00000
    -3.49365      2.56481   33196.00000
    -3.49365      2.55719   33297.00000
    -3.49365      2.54984   33396.00000
    -3.49365      2.53563   33497.00000
    -0.00732      0.11033   34377.00000
    -0.00732     -0.00543   34479.00000
    -0.00732     -0.02556   34578.00000
    -0.00732     -0.01364   34678.00000
    -0.00732     -0.00386   34778.00000
    -0.00732      0.00197   34878.00000
    -0.00732      0.01348   34978.00000
    -0.00732      0.01821   35079.00000
    -0.00732      0.02107   35178.00000
    -0.00732      0.02223   35278.00000
     3.99170     -2.13567   35915.00000
     3.99170     -2.50600   36016.00000
     3.99170     -2.62805   36115.00000
     3.99170     -2.60182   36215.00000
     3.99170     -2.58583   36316.00000
     3.99170     -2.57332   36415.00000
     3.99170     -2.56254   36515.00000
     3.99170     -2.55484   36616.00000
     3.99170     -2.54606   36715.00000
     3.99170     -2.53882   36815.00000
    -3.99170      2.38521   38219.00000
    -3.99170      3.04779   38321.00000
    -3.99170      3.06349   38420.00000
    -3.99170      3.03747   38520.00000
    -3.99170      3.01832   38621.00000
    -3.99170      3.00367   38720.00000
    -3.99170      2.99325   38820.00000
    -3.99170      2.97501   38921.00000
    -3.99170      2.96634   39020.00000
    -3.99170      2.95980   39120.00000
    -0.00732      0.21115   40020.00000
    -0.00732      0.02448   40122.00000
    -0.00732     -0.02874   40221.00000
    -0.00732     -0.02650   40320.00000
    -0.00732     -0.00719   40422.00000
    -0.00732      0.00076   40521.00000
    -0.00732      0.00694   40621.00000
    -0.00732      0.01046   40722.00000
    -0.00732      0.01262   40821.00000
    -0.00732      0.01626   40922.00000
     4.49463     -2.69770   41600.00000
     4.49463     -2.99446   41701.00000
     4.49463     -3.06916   41800.00000
     4.49463     -3.03209   41900.00000
     4.49463     -3.01580   42001.00000
     4.49463     -3.00200   42100.00000
     4.49463     -2.99176   42201.00000
     4.49463     -2.98298   42300.00000
     4.49463     -2.97404   42400.00000
     4.49463     -2.96602   42501.00000
    -4.49463      3.11274   43970.00000
    -4.49463      3.43533   44071.00000
    -4.49463      3.52037   44172.00000
    -4.49463      3.47501   44271.00000
    -4.49463      3.45634   44371.00000
    -4.49463      3.44267   44472.00000
    -4.49463      3.43044   44571.00000
    -4.49463      3.41960   44671.00000
    -4.49463      3.41036   44772.00000
    -4.49463      3.40302   44871.00000
    -0.00732      0.16968   45790.00000
    -0.00732     -0.00213   45891.00000
    -0.00732     -0.04520   45991.00000
    -0.00732     -0.03712   46092.00000
    -0.00732     -0.02531   46191.00000
    -0.00732     -0.00916   46291.00000
    -0.00732     -0.00308   46392.00000
    -0.00732      0.00149   46491.00000
    -0.00732      0.00651   46591.00000
    -0.00732      0.01067   46692.00000
     4.99512     -3.08750   47394.00000
     4.99512     -3.44292   47496.00000
     4.99512     -3.54179   47595.00000
     4.99512     -3.49908   47695.00000
     4.99512     -3.47987   47796.00000
     4.99512     -3.46445   47895.00000
     4.99512     -3.45205   47995.00000
     4.99512     -3.44124   48096.00000
     4.99512     -3.43235   48195.00000
     4.99512     -3.42403   48295.00000
    -4.99512      3.65145   49827.00000
    -4.99512      3.93738   49928.00000
    -4.99512      3.99354   50027.00000
    -4.99512      3.96561   50127.00000
    -4.99512      3.92147   50228.00000
    -4.99512      3.90720   50327.00000
    -4.99512      3.89343   50427.00000
    -4.99512      3.88213   50528.00000
    -4.99512      3.87257   50627.00000
    -4.99512      3.86430   50727.00000
    -0.00732      0.18519   51676.00000
    -0.00732      0.00170   51777.00000
    -0.00732     -0.05187   51877.00000
    -0.00732     -0.04709   51978.00000
    -0.00732     -0.02299   52077.00000
    -0.00732     -0.01575   52177.00000
    -0.00732     -0.01145   52278.00000
    -0.00732     -0.00597   52377.00000
    -0.00732     -0.00089   52477.00000
    -0.00732      0.00365   52578.00000
     5.49072     -3.81494   53299.00000
     5.49072     -4.00986   53399.00000
     5.49072     -4.02042   53499.00000
     5.49072     -3.99071   53600.00000
     5.49072     -3.96777   53699.00000
     5.49072     -3.94945   53799.00000
     5.49072     -3.93398   53900.00000
     5.49072     -3.91061   53999.00000
     5.49072     -3.90091   54099.00000
     5.49072     -3.89229   54200.00000
    -5.49316      4.20977   55761.00000
    -5.49316      4.45872   55862.00000
    -5.49316      4.48747   55961.00000
    -5.49316      4.45445   56061.00000
    -5.49316      4.42765   56162.00000
    -5.49316      4.40801   56261.00000
    -5.49316      4.39240   56361.00000
    -5.49316      4.36871   56462.00000
    -5.49316      4.35755   56561.00000
    -5.49316      4.34766   56661.00000
    -0.00732      0.15639   57634.00000
    -0.00732     -0.01494   57736.00000
    -0.00732     -0.06357   57835.00000
    -0.00732     -0.05716   57935.00000
    -0.00732     -0.03085   58036.00000
    -0.00732     -0.02250   58135.00000
    -0.00732     -0.01621   58235.00000
    -0.00732     -0.01421   58336.00000
    -0.00732     -0.00951   58435.00000
    -0.00732     -0.00384   58535.00000
     5.99121     -4.22388   59287.00000
     5.99121     -4.50416   59388.00000
     5.99121     -4.54930   59489.00000
     5.99121     -4.51659   59588.00000
     5.99121     -4.48771   59688.00000
     5.99121     -4.44837   59789.00000
     5.99121     -4.43381   59888.00000
     5.99121     -4.42139   59988.00000
     5.99121     -4.41071   60089.00000
     5.99121     -4.39959   60188.00000
    -5.99365      4.68641   61830.00000
    -5.99365      4.97471   61930.00000
    -5.99365      5.02383   62030.00000
    -5.99365      4.99073   62131.00000
    -5.99365      4.96172   62230.00000
    -5.99365      4.92157   62330.00000
    -5.99365      4.90731   62431.00000
    -5.99365      4.89488   62530.00000
    -5.99365      4.88224   62630.00000
    -5.99365      4.87152   62731.00000
    -0.00732      0.28985   63721.00000
    -0.00732     -0.06219   63822.00000
    -0.00732     -0.07051   63923.00000
    -0.00732     -0.05608   64021.00000
    -0.00732     -0.04460   64122.00000
    -0.00732     -0.03331   64223.00000
    -0.00732     -0.02688   64322.00000
    -0.00732     -0.02140   64422.00000
    -0.00732     -0.00940   64523.00000
    -0.00732     -0.00683   64622.00000
     6.49414     -4.88567   65412.00000
     6.49414     -5.08045   65511.00000
     6.49414     -5.08983   65611.00000
     6.49414     -5.05290   65712.00000
     6.49414     -5.02302   65811.00000
     6.49414     -5.00165   65911.00000
     6.49414     -4.97026   66012.00000
     6.49414     -4.95697   66111.00000
     6.49414     -4.94516   66211.00000
     6.49414     -4.93311   66312.00000
    -6.49414      5.14891   67989.00000
    -6.49414      5.50786   68090.00000
    -6.49414      5.59253   68191.00000
    -6.49414      5.53336   68290.00000
    -6.49414      5.50881   68390.00000
    -6.49414      5.48952   68491.00000
    -6.49414      5.47166   68590.00000
    -6.49414      5.45621   68690.00000
    -6.49414      5.44419   68791.00000
    -6.49414      5.43157   68890.00000
    -0.00732      0.13781   69918.00000
    -0.00732     -0.03061   70020.00000
    -0.00732     -0.07572   70119.00000
    -0.00732     -0.05362   70218.00000
    -0.00732     -0.04328   70320.00000
    -0.00732     -0.03596   70419.00000
    -0.00732     -0.02750   70519.00000
    -0.00732     -0.01948   70620.00000
    -0.00732     -0.01713   70719.00000
    -0.00732     -0.01351   70819.00000
     6.99219     -4.94608   71609.00000
     6.99219     -5.66836   71709.00000
     6.99219     -5.66088   71809.00000
     6.99219     -5.62122   71910.00000
     6.99219     -5.59077   72009.00000
     6.99219     -5.56657   72109.00000
     6.99219     -5.54720   72210.00000
     6.99219     -5.53107   72309.00000
     6.99219     -5.50338   72410.00000
     6.99219     -5.49106   72509.00000
    -6.99463      5.50508   74229.00000
    -6.99463      6.02561   74330.00000
    -6.99463      6.18084   74429.00000
    -6.99463      6.14045   74529.00000
    -6.99463      6.11144   74630.00000
    -6.99463      6.08791   74729.00000
    -6.99463      6.06867   74829.00000
    -6.99463      6.05209   74930.00000
    -6.99463      6.03755   75029.00000
    -6.99463      6.01408   75129.00000
    -0.00732      0.01502   76188.00000
    -0.00732     -0.07621   76288.00000
    -0.00732     -0.08407   76389.00000
    -0.00732     -0.06948   76488.00000
    -0.00732     -0.05662   76588.00000
    -0.00732     -0.04738   76689.00000
    -0.00732     -0.04025   76788.00000
    -0.00732     -0.02729   76889.00000
    -0.00732     -0.02245   76988.00000
    -0.00732     -0.01597   77088.00000
     7.49268     -5.70486   77901.00000
     7.49268     -6.16501   78003.00000
     7.49268     -6.29061   78102.00000
     7.49268     -6.22269   78202.00000
     7.49268     -6.19270   78303.00000
     7.49268     -6.16817   78402.00000
     7.49268     -6.14772   78502.00000
     7.49268     -6.13016   78603.00000
     7.49268     -6.11314   78702.00000
     7.49268     -6.09963   78802.00000
    -7.49512      6.49981   80578.00000
    -7.49512      6.80460   80678.00000
    -7.49512      6.83845   80779.00000
    -7.49512      6.79560   80878.00000
    -7.49512      6.76081   80978.00000
    -7.49512      6.73387   81079.00000
    -7.49512      6.69092   81178.00000
    -7.49512      6.67520   81278.00000
    -7.49512      6.66134   81379.00000
    -7.49512      6.64691   81478.00000
    -0.00732      0.12897   82555.00000
    -0.00732     -0.04455   82656.00000
    -0.00732     -0.08896   82755.00000
    -0.00732     -0.07375   82855.00000
    -0.00732     -0.06354   82956.00000
    -0.00732     -0.05203   83055.00000
    -0.00732     -0.04549   83155.00000
    -0.00732     -0.03704   83256.00000
    -0.00732     -0.03023   83355.00000
    -0.00732     -0.02259   83455.00000
     7.99072     -6.40277   84281.00000
     7.99072     -6.83534   84382.00000
     7.99072     -6.93100   84482.00000
     7.99072     -6.89286   84582.00000
     7.99072     -6.81694   84682.00000
     7.99072     -6.79036   84783.00000
     7.99072     -6.76753   84882.00000
     7.99072     -6.74970   84982.00000
     7.99072     -6.73222   85083.00000
     7.99072     -6.71780   85182.00000
    -7.99072      7.07116   86988.00000
    -7.99072      7.46175   87089.00000
    -7.99072      7.53110   87188.00000
    -7.99072      7.48687   87288.00000
    -7.99072      7.44616   87389.00000
    -7.99072      7.39135   87489.00000
    -7.99072      7.37130   87588.00000
    -7.99072      7.35247   87689.00000
    -7.99072      7.33567   87788.00000
    -7.99072      7.32086   87888.00000
    -0.00732     -0.00132   88990.00000
    -0.00732     -0.08972   89092.00000
    -0.00732     -0.10007   89191.00000
    -0.00732     -0.08369   89290.00000
    -0.00732     -0.06832   89392.00000
    -0.00732     -0.05970   89491.00000
    -0.00732     -0.04352   89591.00000
    -0.00732     -0.03755   89692.00000
    -0.00732     -0.03266   89791.00000
    -0.00732     -0.02866   89891.00000
     8.49121     -7.27777   90741.00000
     8.49121     -7.58167   90843.00000
     8.49121     -7.60420   90942.00000
     8.49121     -7.55322   91042.00000
     8.49121     -7.51270   91143.00000
     8.49121     -7.48104   91242.00000
     8.49121     -7.42968   91342.00000
     8.49121     -7.40988   91443.00000
     8.49121     -7.39299   91542.00000
     8.49121     -7.37700   91642.00000
    -8.49121      7.70505   93485.00000
    -8.49121      8.16971   93586.00000
    -8.49121      8.27188   93685.00000
    -8.49121      8.22925   93786.00000
    -8.49121      8.14956   93885.00000
    -8.49121      8.12143   93985.00000
    -8.49121      8.09777   94086.00000
    -8.49121      8.07778   94185.00000
    -8.49121      8.06016   94285.00000
    -8.49121      8.04339   94386.00000
    -0.00732      0.03661   95511.00000
    -0.00732     -0.08461   95611.00000
    -0.00732     -0.11214   95712.00000
    -0.00732     -0.08332   95811.00000
    -0.00732     -0.07137   95911.00000
    -0.00732     -0.06060   96012.00000
    -0.00732     -0.05263   96111.00000
    -0.00732     -0.04601   96211.00000
    -0.00732     -0.03979   96312.00000
    -0.00732     -0.03650   96411.00000
     8.99170     -7.57310   97298.00000
     8.99170     -8.33294   97398.00000
     8.99170     -8.31054   97499.00000
     8.99170     -8.25705   97598.00000
     8.99170     -8.21531   97698.00000
     8.99170     -8.18254   97799.00000
     8.99170     -8.15558   97898.00000
     8.99170     -8.13092   97998.00000
     8.99170     -8.09096   98099.00000
     8.99170     -8.07418   98198.00000
    -8.99414      8.76273  100120.00000
    -8.99414      9.03804  100220.00000
    -8.99414      9.05144  100321.00000
    -8.99414      8.99654  100420.00000
    -8.99414      8.95483  100520.00000
    -8.99414      8.92298  100621.00000
    -8.99414      8.89553  100720.00000
    -8.99414      8.85039  100820.00000
    -8.99414      8.83259  100921.00000
    -8.99414      8.81578  101020.00000
    -0.00732      0.00475  102146.00000
    -0.00732     -0.10190  102247.00000
    -0.00732     -0.11911  102346.00000
    -0.00732     -0.10331  102447.00000
    -0.00732     -0.08991  102546.00000
    -0.00732     -0.07716  102646.00000
    -0.00732     -0.06057  102747.00000
    -0.00732     -0.05260  102846.00000
    -0.00732     -0.04620  102946.00000
    -0.00732     -0.04249  103047.00000
     9.49219     -8.42860  103926.00000
     9.49219     -8.98819  104028.00000
     9.49219     -9.12160  104127.00000
     9.49219     -9.00997  104227.00000
     9.49219     -8.96783  104328.00000
     9.49219     -8.93343  104427.00000
     9.49219     -8.90361  104527.00000
     9.49219     -8.87865  104628.00000
     9.49219     -8.85685  104727.00000
     9.49219     -8.83629  104827.00000
    -9.49463      9.07405  106737.00000
    -9.49463      9.73798  106837.00000
    -9.49463      9.92487  106938.00000
    -9.49463      9.82559  107037.00000
    -9.49463      9.78418  107137.00000
    -9.49463      9.75079  107238.00000
    -9.49463      9.72258  107337.00000
    -9.49463      9.69843  107437.00000
    -9.49463      9.67603  107538.00000
    -9.49463      9.65769  107637.00000
    -0.00732     -0.05295  108787.00000
    -0.00732     -0.12238  108889.00000
    -0.00732     -0.12511  108988.00000
    -0.00732     -0.10860  109088.00000
    -0.00732     -0.09080  109189.00000
    -0.00732     -0.08042  109288.00000
    -0.00732     -0.07189  109388.00000
    -0.00732     -0.05865  109489.00000
    -0.00732     -0.05114  109588.00000
    -0.00732     -0.04576  109688.00000
     9.99512     -9.20383  110600.00000
     9.99512     -9.79274  110700.00000
     9.99512     -9.94675  110800.00000
     9.99512     -9.83577  110901.00000
     9.99512     -9.78969  111000.00000
     9.99512     -9.75124  111100.00000
     9.99512     -9.71872  111201.00000
     9.99512     -9.69140  111300.00000
     9.99512     -9.66696  111400.00000
     9.99512     -9.64534  111501.00000
    -9.99512     10.16631  113476.00000
    -9.99512     10.72417  113577.00000
    -9.99512     10.84634  113678.00000
    -9.99512     10.78990  113777.00000
    -9.99512     10.69035  113877.00000
    -9.99512     10.65612  113978.00000
    -9.99512     10.62595  114077.00000
    -9.99512     10.59782  114177.00000
    -9.99512     10.57619  114278.00000
    -9.99512     10.55571  114377.00000
    -0.00732     -0.04074  115570.00000
    -0.00732     -0.12205  115671.00000
    -0.00732     -0.13275  115772.00000
    -0.00732     -0.11538  115871.00000
    -0.00732     -0.09907  115972.00000
    -0.00732     -0.07845  116071.00000
    -0.00732     -0.06983  116171.00000
    -0.00732     -0.06346  116272.00000
    -0.00732     -0.05703  116371.00000
    -0.00732     -0.05149  116471.00000
    10.49072    -10.36341  117413.00000
    10.49072    -10.76859  117514.00000
    10.49072    -10.81570  117613.00000
    10.49072    -10.74095  117713.00000
    10.49072    -10.67803  117814.00000
    10.49072    -10.59277  117913.00000
    10.49072    -10.55944  118013.00000
    10.49072    -10.52977  118114.00000
    10.49072    -10.50403  118213.00000
    10.49072    -10.47990  118313.00000
   -10.49072     10.86784  120345.00000
   -10.49072     11.82754  120446.00000
   -10.49072     11.79517  120547.00000
   -10.49072     11.72512  120646.00000
   -10.49072     11.67614  120746.00000
   -10.49072     11.63586  120847.00000
   -10.49072     11.60172  120947.00000
   -10.49072     11.57302  121046.00000
   -10.49072     11.52386  121147.00000
   -10.49072     11.50324  121246.00000
    -0.00732      0.03442  122421.00000
    -0.00732     -0.10655  122521.00000
    -0.00732     -0.14450  122622.00000
    -0.00732     -0.13321  122723.00000
    -0.00732     -0.09934  122822.00000
    -0.00732     -0.08945  122922.00000
    -0.00732     -0.07986  123023.00000
    -0.00732     -0.07108  123122.00000
    -0.00732     -0.06578  123222.00000
    -0.00732     -0.06078  123323.00000
    10.99121    -11.02413  124269.00000
    10.99121    -11.64135  124369.00000
    10.99121    -11.77758  124470.00000
    10.99121    -11.62941  124569.00000
    10.99121    -11.57467  124669.00000
    10.99121    -11.53053  124770.00000
    10.99121    -11.49230  124869.00000
    10.99121    -11.45745  124969.00000
    10.99121    -11.42871  125070.00000
    10.99121    -11.40253  125169.00000
   -10.99121     12.49368  127195.00000
   -10.99121     12.88184  127295.00000
   -10.99121     12.89183  127395.00000
   -10.99121     12.81319  127496.00000
   -10.99121     12.75484  127595.00000
   -10.99121     12.70840  127695.00000
   -10.99121     12.66968  127796.00000
   -10.99121     12.60868  127895.00000
   -10.99121     12.58256  127995.00000
   -10.99121     12.55776  128096.00000
    -0.00732     -0.08191  129311.00000
    -0.00732     -0.14926  129413.00000
    -0.00732     -0.15318  129512.00000
    -0.00732     -0.13327  129612.00000
    -0.00732     -0.11527  129713.00000
    -0.00732     -0.10336  129812.00000
    -0.00732     -0.08491  129912.00000
    -0.00732     -0.07745  130013.00000
    -0.00732     -0.07013  130112.00000
    -0.00732     -0.06332  130212.00000
    10.99121    -11.28415  131159.00000
    10.99121    -11.69111  131261.00000
    10.99121    -11.71053  131360.00000
    10.99121    -11.62743  131461.00000
    10.99121    -11.56324  131560.00000
    10.99121    -11.51235  131660.00000
    10.99121    -11.43630  131761.00000
    10.99121    -11.40599  131860.00000
    10.99121    -11.37811  131960.00000
    10.99121    -11.35328  132061.00000
   -10.99365     11.89448  134085.00000
   -10.99365     12.65918  134186.00000
   -10.99365     12.87238  134287.00000
   -10.99365     12.75214  134386.00000
   -10.99365     12.70019  134486.00000
   -10.99365     12.65820  134587.00000
   -10.99365     12.62160  134686.00000
   -10.99365     12.59069  134786.00000
   -10.99365     12.56395  134886.00000
   -10.99365     12.53807  134986.00000
    -0.00732      0.01397  136204.00000
    -0.00732     -0.12030  136304.00000
    -0.00732     -0.14923  136404.00000
    -0.00732     -0.12832  136505.00000
    -0.00732     -0.11233  136604.00000
    -0.00732     -0.10225  136704.00000
    -0.00732     -0.09337  136805.00000
    -0.00732     -0.08388  136904.00000
    -0.00732     -0.07653  137004.00000
    -0.00732     -0.06543  137105.00000
    10.48828     -9.92484  138046.00000
    10.48828    -10.53896  138146.00000
    10.48828    -10.65150  138247.00000
    10.48828    -10.58021  138346.00000
    10.48828    -10.52893  138446.00000
    10.48828    -10.48749  138547.00000
    10.48828    -10.45435  138646.00000
    10.48828    -10.42490  138746.00000
    10.48828    -10.39810  138847.00000
    10.48828    -10.35404  138946.00000
   -10.49072     11.27788  140978.00000
   -10.49072     11.67439  141078.00000
   -10.49072     11.71277  141178.00000
   -10.49072     11.64489  141279.00000
   -10.49072     11.58996  141378.00000
   -10.49072     11.54831  141478.00000
   -10.49072     11.48382  141579.00000
   -10.49072     11.45748  141678.00000
   -10.49072     11.43465  141778.00000
   -10.49072     11.41412  141879.00000
    -0.00732      0.11495  143053.00000
    -0.00732     -0.14388  143154.00000
    -0.00732     -0.14426  143253.00000
    -0.00732     -0.12746  143353.00000
    -0.00732     -0.11290  143454.00000
    -0.00732     -0.10058  143553.00000
    -0.00732     -0.09020  143653.00000
    -0.00732     -0.08050  143754.00000
    -0.00732     -0.06670  143853.00000
    -0.00732     -0.06070  143953.00000
     9.99512     -9.11417  144865.00000
     9.99512     -9.65572  144965.00000
     9.99512     -9.78326  145065.00000
     9.99512     -9.66634  145166.00000
     9.99512     -9.62187  145265.00000
     9.99512     -9.58459  145365.00000
     9.99512     -9.55487  145466.00000
     9.99512     -9.52845  145565.00000
     9.99512     -9.50346  145665.00000
     9.99512     -9.48320  145766.00000
    -9.99512     10.07197  147741.00000
    -9.99512     10.59347  147842.00000
    -9.99512     10.69619  147943.00000
    -9.99512     10.63905  148042.00000
    -9.99512     10.54212  148143.00000
    -9.99512     10.50792  148242.00000
    -9.99512     10.47950  148342.00000
    -9.99512     10.45429  148443.00000
    -9.99512     10.43265  148542.00000
    -9.99512     10.41274  148642.00000
    -0.00732     -0.06443  149835.00000
    -0.00732     -0.13705  149937.00000
    -0.00732     -0.14113  150036.00000
    -0.00732     -0.12519  150136.00000
    -0.00732     -0.10995  150237.00000
    -0.00732     -0.08756  150336.00000
    -0.00732     -0.07948  150436.00000
    -0.00732     -0.07454  150537.00000
    -0.00732     -0.06700  150636.00000
    -0.00732     -0.06011  150736.00000
     9.49219     -8.18133  151617.00000
     9.49219     -8.77907  151718.00000
     9.49219     -8.94076  151819.00000
     9.49219     -8.83556  151918.00000
     9.49219     -8.79212  152018.00000
     9.49219     -8.75773  152119.00000
     9.49219     -8.72815  152218.00000
     9.49219     -8.70386  152318.00000
     9.49219     -8.68187  152419.00000
     9.49219     -8.66231  152518.00000
    -9.49463      8.83072  154422.00000
    -9.49463      9.53150  154523.00000
    -9.49463      9.74760  154623.00000
    -9.49463      9.65723  154724.00000
    -9.49463      9.61719  154823.00000
    -9.49463      9.58388  154923.00000
    -9.49463      9.55574  155024.00000
    -9.49463      9.53266  155123.00000
    -9.49463      9.51137  155223.00000
    -9.49463      9.49209  155324.00000
    -0.00732     -0.06913  156473.00000
    -0.00732     -0.13832  156574.00000
    -0.00732     -0.13905  156674.00000
    -0.00732     -0.12187  156775.00000
    -0.00732     -0.10601  156874.00000
    -0.00732     -0.09382  156975.00000
    -0.00732     -0.08421  157074.00000
    -0.00732     -0.06873  157174.00000
    -0.00732     -0.06292  157275.00000
    -0.00732     -0.05706  157374.00000
     8.99170     -7.75327  158261.00000
     8.99170     -8.09472  158361.00000
     8.99170     -8.13964  158461.00000
     8.99170     -8.08707  158562.00000
     8.99170     -8.03909  158661.00000
     8.99170     -7.97517  158761.00000
     8.99170     -7.94932  158862.00000
     8.99170     -7.92655  158961.00000
     8.99170     -7.90828  159061.00000
     8.99170     -7.89170  159162.00000
    -8.99414      8.29998  161082.00000
    -8.99414      8.76943  161183.00000
    -8.99414      8.87678  161284.00000
    -8.99414      8.78364  161383.00000
    -8.99414      8.74827  161483.00000
    -8.99414      8.72010  161584.00000
    -8.99414      8.69675  161683.00000
    -8.99414      8.67506  161783.00000
    -8.99414      8.65618  161884.00000
    -8.99414      8.63997  161983.00000
    -0.00732      0.06875  163109.00000
    -0.00732     -0.08829  163211.00000
    -0.00732     -0.13035  163310.00000
    -0.00732     -0.11128  163410.00000
    -0.00732     -0.09923  163511.00000
    -0.00732     -0.08656  163610.00000
    -0.00732     -0.07648  163710.00000
    -0.00732     -0.06913  163811.00000
    -0.00732     -0.06400  163910.00000
    -0.00732     -0.05176  164010.00000
     8.48877     -6.76164  164860.00000
     8.48877     -7.27737  164962.00000
     8.48877     -7.41852  165061.00000
     8.48877     -7.33748  165161.00000
     8.48877     -7.30179  165262.00000
     8.48877     -7.27237  165361.00000
     8.48877     -7.24773  165461.00000
     8.48877     -7.22760  165562.00000
     8.48877     -7.20940  165661.00000
     8.48877     -7.19224  165761.00000
    -8.49365      7.08977  167605.00000
    -8.49365      8.05246  167705.00000
    -8.49365      8.05806  167805.00000
    -8.49365      8.00857  167906.00000
    -8.49365      7.97085  168005.00000
    -8.49365      7.94100  168105.00000
    -8.49365      7.91636  168206.00000
    -8.49365      7.89578  168305.00000
    -8.49365      7.85985  168405.00000
    -8.49365      7.84580  168506.00000
    -0.00732     -0.05916  169630.00000
    -0.00732     -0.12649  169732.00000
    -0.00732     -0.12503  169831.00000
    -0.00732     -0.10771  169931.00000
    -0.00732     -0.09515  170032.00000
    -0.00732     -0.08391  170131.00000
    -0.00732     -0.07478  170231.00000
    -0.00732     -0.06062  170332.00000
    -0.00732     -0.05341  170431.00000
    -0.00732     -0.04760  170531.00000
     7.99072     -6.00151  171357.00000
     7.99072     -6.55827  171457.00000
     7.99072     -6.71958  171557.00000
     7.99072     -6.67320  171658.00000
     7.99072     -6.63916  171757.00000
     7.99072     -6.61090  171857.00000
     7.99072     -6.58707  171958.00000
     7.99072     -6.56867  172057.00000
     7.99072     -6.55160  172157.00000
     7.99072     -6.52315  172258.00000
    -7.99316      6.68303  174057.00000
    -7.99316      7.18981  174157.00000
    -7.99316      7.32967  174258.00000
    -7.99316      7.25551  174357.00000
    -7.99316      7.22358  174457.00000
    -7.99316      7.19802  174558.00000
    -7.99316      7.17736  174657.00000
    -7.99316      7.15880  174757.00000
    -7.99316      7.14216  174858.00000
    -7.99316      7.12859  174957.00000
    -0.00732      0.00113  176058.00000
    -0.00732     -0.10693  176159.00000
    -0.00732     -0.12654  176260.00000
    -0.00732     -0.11298  176359.00000
    -0.00732     -0.09680  176459.00000
    -0.00732     -0.07594  176560.00000
    -0.00732     -0.06851  176659.00000
    -0.00732     -0.06205  176759.00000
    -0.00732     -0.05571  176860.00000
    -0.00732     -0.05028  176959.00000
     7.49268     -5.34142  177772.00000
     7.49268     -6.10263  177873.00000
     7.49268     -6.09485  177974.00000
     7.49268     -6.05020  178074.00000
     7.49268     -6.01840  178173.00000
     7.49268     -5.99174  178274.00000
     7.49268     -5.96980  178373.00000
     7.49268     -5.95051  178473.00000
     7.49268     -5.92263  178574.00000
     7.49268     -5.91061  178673.00000
    -7.49512      6.19108  180443.00000
    -7.49512      6.57178  180544.00000
    -7.49512      6.64750  180644.00000
    -7.49512      6.60930  180745.00000
    -7.49512      6.54379  180844.00000
    -7.49512      6.52097  180944.00000
    -7.49512      6.50178  181045.00000
    -7.49512      6.48614  181144.00000
    -7.49512      6.47174  181244.00000
    -7.49512      6.45783  181345.00000
    -0.00732     -0.04287  182421.00000
    -0.00732     -0.11236  182521.00000
    -0.00732     -0.11390  182622.00000
    -0.00732     -0.09909  182721.00000
    -0.00732     -0.08572  182821.00000
    -0.00732     -0.07470  182922.00000
    -0.00732     -0.06662  183021.00000
    -0.00732     -0.06046  183121.00000
    -0.00732     -0.04863  183222.00000
    -0.00732     -0.04385  183321.00000
     6.99219     -5.17336  184111.00000
     6.99219     -5.46880  184210.00000
     6.99219     -5.50551  184310.00000
     6.99219     -5.46677  184411.00000
     6.99219     -5.43290  184510.00000
     6.99219     -5.40807  184610.00000
     6.99219     -5.36876  184711.00000
     6.99219     -5.35428  184810.00000
     6.99219     -5.34164  184910.00000
     6.99219     -5.32932  185011.00000
    -6.99219      5.69656  186731.00000
    -6.99219      5.97958  186831.00000
    -6.99219      6.01011  186932.00000
    -6.99219      5.96910  187031.00000
    -6.99219      5.93570  187131.00000
    -6.99219      5.91071  187232.00000
    -6.99219      5.87403  187331.00000
    -6.99219      5.85930  187431.00000
    -6.99219      5.84610  187532.00000
    -6.99219      5.83334  187631.00000
    -0.00732      0.05198  188690.00000
    -0.00732     -0.07670  188790.00000
    -0.00732     -0.10674  188891.00000
    -0.00732     -0.09774  188990.00000
    -0.00732     -0.07075  189090.00000
    -0.00732     -0.06132  189191.00000
    -0.00732     -0.05279  189290.00000
    -0.00732     -0.04660  189390.00000
    -0.00732     -0.04220  189491.00000
    -0.00732     -0.03725  189590.00000
     6.48926     -4.45886  190373.00000
     6.48926     -4.83729  190474.00000
     6.48926     -4.91301  190573.00000
     6.48926     -4.87935  190673.00000
     6.48926     -4.85431  190774.00000
     6.48926     -4.83337  190873.00000
     6.48926     -4.81770  190973.00000
     6.48926     -4.80514  191074.00000
     6.48926     -4.79255  191173.00000
     6.48926     -4.76853  191273.00000
    -6.49170      5.18084  192951.00000
    -6.49170      5.39159  193052.00000
    -6.49170      5.40637  193152.00000
    -6.49170      5.37149  193253.00000
    -6.49170      5.34137  193352.00000
    -6.49170      5.31997  193452.00000
    -6.49170      5.28623  193553.00000
    -6.49170      5.27245  193652.00000
    -6.49170      5.26046  193753.00000
    -6.49170      5.24897  193852.00000
    -0.00732      0.01208  194875.00000
    -0.00732     -0.08712  194975.00000
    -0.00732     -0.09834  195076.00000
    -0.00732     -0.08445  195175.00000
    -0.00732     -0.07313  195275.00000
    -0.00732     -0.06427  195376.00000
    -0.00732     -0.05633  195475.00000
    -0.00732     -0.04214  195575.00000
    -0.00732     -0.03869  195676.00000
    -0.00732     -0.03453  195775.00000
     5.99121     -3.75811  196528.00000
     5.99121     -4.40067  196628.00000
     5.99121     -4.39475  196728.00000
     5.99121     -4.35925  196829.00000
     5.99121     -4.33413  196928.00000
     5.99121     -4.31476  197028.00000
     5.99121     -4.29890  197129.00000
     5.99121     -4.28585  197228.00000
     5.99121     -4.26332  197328.00000
     5.99121     -4.25154  197429.00000
    -5.99121      4.18962  199069.00000
    -5.99121      4.85061  199169.00000
    -5.99121      4.85012  199270.00000
    -5.99121      4.81446  199369.00000
    -5.99121      4.78885  199469.00000
    -5.99121      4.76853  199569.00000
    -5.99121      4.75259  199669.00000
    -5.99121      4.73790  199770.00000
    -5.99121      4.71496  199869.00000
    -5.99121      4.70462  199969.00000
    -0.00732      0.13843  200985.00000
    -0.00732     -0.03647  201086.00000
    -0.00732     -0.08972  201187.00000
    -0.00732     -0.07559  201286.00000
    -0.00732     -0.06165  201386.00000
    -0.00732     -0.05311  201487.00000
    -0.00732     -0.04779  201586.00000
    -0.00732     -0.04133  201686.00000
    -0.00732     -0.03453  201787.00000
    -0.00732     -0.02564  201886.00000
     5.49072     -3.57162  202608.00000
     5.49072     -3.85347  202708.00000
     5.49072     -3.90220  202810.00000
     5.49072     -3.87222  202909.00000
     5.49072     -3.84507  203009.00000
     5.49072     -3.81016  203110.00000
     5.49072     -3.79666  203209.00000
     5.49072     -3.78434  203309.00000
     5.49072     -3.77504  203410.00000
     5.49072     -3.76594  203509.00000
    -5.49316      3.76940  205101.00000
    -5.49316      4.19873  205202.00000
    -5.49316      4.32421  205302.00000
    -5.49316      4.29371  205403.00000
    -5.49316      4.27094  205502.00000
    -5.49316      4.25243  205602.00000
    -5.49316      4.23684  205703.00000
    -5.49316      4.22423  205802.00000
    -5.49316      4.21385  205902.00000
    -5.49316      4.19562  206003.00000
    -0.00732      0.05257  206975.00000
    -0.00732     -0.06524  207076.00000
    -0.00732     -0.08580  207175.00000
    -0.00732     -0.07386  207275.00000
    -0.00732     -0.06062  207376.00000
    -0.00732     -0.05157  207475.00000
    -0.00732     -0.03666  207575.00000
    -0.00732     -0.03247  207676.00000
    -0.00732     -0.02623  207775.00000
    -0.00732     -0.02240  207876.00000
     4.99512     -3.09004  208578.00000
     4.99512     -3.37530  208679.00000
     4.99512     -3.43254  208780.00000
     4.99512     -3.40604  208879.00000
     4.99512     -3.36344  208979.00000
     4.99512     -3.35144  209080.00000
     4.99512     -3.33793  209179.00000
     4.99512     -3.32726  209279.00000
     4.99512     -3.31894  209380.00000
     4.99512     -3.31027  209479.00000
    -4.99268      3.60071  211011.00000
    -4.99268      3.82637  211112.00000
    -4.99268      3.85242  211213.00000
    -4.99268      3.82159  211312.00000
    -4.99268      3.79768  211412.00000
    -4.99268      3.78031  211513.00000
    -4.99268      3.75394  211612.00000
    -4.99268      3.74330  211712.00000
    -4.99268      3.73347  211813.00000
    -4.99268      3.72520  211912.00000
    -0.00732      0.09366  212861.00000
    -0.00732     -0.04711  212962.00000
    -0.00732     -0.07883  213061.00000
    -0.00732     -0.06929  213161.00000
    -0.00732     -0.05587  213262.00000
    -0.00732     -0.04009  213361.00000
    -0.00732     -0.03301  213461.00000
    -0.00732     -0.02937  213562.00000
    -0.00732     -0.02591  213661.00000
    -0.00732     -0.02015  213761.00000
     4.49219     -2.69854  214440.00000
     4.49219     -2.93554  214542.00000
     4.49219     -2.97887  214641.00000
     4.49219     -2.95594  214741.00000
     4.49219     -2.93370  214842.00000
     4.49219     -2.90474  214941.00000
     4.49219     -2.89461  215041.00000
     4.49219     -2.88386  215142.00000
     4.49219     -2.87600  215241.00000
     4.49219     -2.86852  215341.00000
    -4.49463      3.08183  216813.00000
    -4.49463      3.34445  216913.00000
    -4.49463      3.39540  217014.00000
    -4.49463      3.37017  217113.00000
    -4.49463      3.34566  217213.00000
    -4.49463      3.31465  217314.00000
    -4.49463      3.30292  217413.00000
    -4.49463      3.29317  217513.00000
    -4.49463      3.28477  217614.00000
    -4.49463      3.27604  217713.00000
    -0.00732      0.08893  218632.00000
    -0.00732     -0.03977  218733.00000
    -0.00732     -0.06619  218833.00000
    -0.00732     -0.05571  218934.00000
    -0.00732     -0.04471  219033.00000
    -0.00732     -0.03601  219133.00000
    -0.00732     -0.02431  219234.00000
    -0.00732     -0.01718  219333.00000
    -0.00732     -0.01289  219433.00000
    -0.00732     -0.01010  219534.00000
     3.98926     -2.06284  220169.00000
     3.98926     -2.42938  220270.00000
     3.98926     -2.54444  220370.00000
     3.98926     -2.52321  220471.00000
     3.98926     -2.50735  220570.00000
     3.98926     -2.49398  220670.00000
     3.98926     -2.48379  220771.00000
     3.98926     -2.47539  220870.00000
     3.98926     -2.46747  220970.00000
     3.98926     -2.45453  221071.00000
    -3.99414      2.74473  222474.00000
    -3.99414      2.93932  222575.00000
    -3.99414      2.95486  222675.00000
    -3.99414      2.92719  222776.00000
    -3.99414      2.90788  222875.00000
    -3.99414      2.89413  222975.00000
    -3.99414      2.88313  223076.00000
    -3.99414      2.86387  223175.00000
    -3.99414      2.85582  223275.00000
    -3.99414      2.84939  223376.00000
    -0.00732      0.17822  224275.00000
    -0.00732     -0.00040  224376.00000
    -0.00732     -0.05327  224477.00000
    -0.00732     -0.03558  224576.00000
    -0.00732     -0.02615  224676.00000
    -0.00732     -0.01937  224777.00000
    -0.00732     -0.01526  224876.00000
    -0.00732     -0.01027  224976.00000
    -0.00732     -0.00635  225077.00000
    -0.00732     -0.00213  225176.00000
     3.48877     -1.65383  225787.00000
     3.48877     -2.01489  225889.00000
     3.48877     -2.14653  225988.00000
     3.48877     -2.12538  226088.00000
     3.48877     -2.11065  226189.00000
     3.48877     -2.09931  226288.00000
     3.48877     -2.09069  226388.00000
     3.48877     -2.08299  226489.00000
     3.48877     -2.07675  226588.00000
     3.48877     -2.06532  226688.00000
    -3.49365      2.11260  228049.00000
    -3.49365      2.43951  228151.00000
    -3.49365      2.53915  228250.00000
    -3.49365      2.50759  228350.00000
    -3.49365      2.49211  228451.00000
    -3.49365      2.48014  228550.00000
    -3.49365      2.47050  228650.00000
    -3.49365      2.46110  228751.00000
    -3.49365      2.45434  228850.00000
    -3.49365      2.44935  228950.00000
    -0.00732      0.29023  229827.00000
    -0.00732     -0.03496  229927.00000
    -0.00732     -0.04112  230028.00000
    -0.00732     -0.02999  230127.00000
    -0.00732     -0.02053  230227.00000
    -0.00732     -0.01526  230328.00000
    -0.00732     -0.00983  230427.00000
    -0.00732     -0.00292  230527.00000
    -0.00732      0.00221  230628.00000
    -0.00732      0.00402  230727.00000
     2.98828     -1.30338  231303.00000
     2.98828     -1.64137  231403.00000
     2.98828     -1.76332  231503.00000
     2.98828     -1.74460  231604.00000
     2.98828     -1.73344  231703.00000
     2.98828     -1.72361  231803.00000
     2.98828     -1.71607  231904.00000
     2.98828     -1.70915  232003.00000
     2.98828     -1.70272  232103.00000
     2.98828     -1.69413  232204.00000
    -2.99316      1.70218  233478.00000
    -2.99316      2.03471  233579.00000
    -2.99316      2.14386  233679.00000
    -2.99316      2.11771  233780.00000
    -2.99316      2.10452  233879.00000
    -2.99316      2.09472  233979.00000
    -2.99316      2.08515  234080.00000
    -2.99316      2.07710  234179.00000
    -2.99316      2.06983  234279.00000
    -2.99316      2.06449  234380.00000
    -0.00732      0.19281  235212.00000
    -0.00732      0.01872  235313.00000
    -0.00732     -0.02850  235412.00000
    -0.00732     -0.02407  235512.00000
    -0.00732     -0.01343  235613.00000
    -0.00732     -0.00105  235712.00000
    -0.00732      0.00327  235812.00000
    -0.00732      0.00711  235913.00000
    -0.00732      0.01210  236012.00000
    -0.00732      0.01386  236112.00000
     2.49268     -0.95415  236646.00000
     2.49268     -1.28296  236746.00000
     2.49268     -1.41080  236847.00000
     2.49268     -1.39561  236946.00000
     2.49268     -1.38435  237046.00000
     2.49268     -1.37600  237147.00000
     2.49268     -1.37038  237246.00000
     2.49268     -1.36465  237346.00000
     2.49268     -1.35874  237447.00000
     2.49268     -1.35061  237546.00000
    -2.49512      1.21183  238760.00000
    -2.49512      1.75667  238862.00000
    -2.49512      1.77126  238961.00000
    -2.49512      1.75232  239061.00000
    -2.49512      1.73960  239162.00000
    -2.49512      1.72941  239261.00000
    -2.49512      1.72001  239361.00000
    -2.49512      1.71412  239462.00000
    -2.49512      1.70967  239561.00000
    -2.49512      1.70037  239661.00000
    -0.00732      0.18824  240458.00000
    -0.00732      0.02321  240560.00000
    -0.00732     -0.01402  240659.00000
    -0.00732     -0.00640  240759.00000
    -0.00732      0.00381  240860.00000
    -0.00732      0.00946  240959.00000
    -0.00732      0.01764  241059.00000
    -0.00732      0.02061  241160.00000
    -0.00732      0.02302  241259.00000
    -0.00732      0.02647  241359.00000
     1.99219     -0.84547  241861.00000
     1.99219     -1.04520  241962.00000
     1.99219     -1.09110  242063.00000
     1.99219     -1.07983  242162.00000
     1.99219     -1.06765  242262.00000
     1.99219     -1.05879  242363.00000
     1.99219     -1.04757  242462.00000
     1.99219     -1.04325  242562.00000
     1.99219     -1.03820  242663.00000
     1.99219     -1.03515  242762.00000
    -1.99463      1.05781  243903.00000
    -1.99463      1.32972  244004.00000
    -1.99463      1.41922  244105.00000
    -1.99463      1.41374  244204.00000
    -1.99463      1.38883  244304.00000
    -1.99463      1.38178  244405.00000
    -1.99463      1.37557  244504.00000
    -1.99463      1.36970  244604.00000
    -1.99463      1.36538  244705.00000
    -1.99463      1.36225  244804.00000
    -0.00732      0.29239  245558.00000
    -0.00732      0.06940  245658.00000
    -0.00732      0.00565  245759.00000
    -0.00732      0.00470  245860.00000
    -0.00732      0.01305  245959.00000
    -0.00732      0.02083  246059.00000
    -0.00732      0.02691  246160.00000
    -0.00732      0.03104  246259.00000
    -0.00732      0.03080  246359.00000
    -0.00732      0.03558  246460.00000
     1.48926     -0.34690  246919.00000
     1.48926     -0.76605  247019.00000
     1.48926     -0.78285  247119.00000
     1.48926     -0.77104  247220.00000
     1.48926     -0.76221  247319.00000
     1.48926     -0.75713  247419.00000
     1.48926     -0.75270  247520.00000
     1.48926     -0.74822  247619.00000
     1.48926     -0.74168  247719.00000
     1.48926     -0.73865  247820.00000
    -1.49414      0.82832  248875.00000
    -1.49414      1.03820  248976.00000
    -1.49414      1.09118  249075.00000
    -1.49414      1.08178  249175.00000
    -1.49414      1.07011  249276.00000
    -1.49414      1.06208  249375.00000
    -1.49414      1.05206  249476.00000
    -1.49414      1.04698  249575.00000
    -1.49414      1.04285  249675.00000
    -1.49414      1.04042  249776.00000
    -0.00732      0.43057  250486.00000
    -0.00732      0.13462  250587.00000
    -0.00732      0.02988  250686.00000
    -0.00732      0.02639  250786.00000
    -0.00732      0.03180  250887.00000
    -0.00732      0.03604  250986.00000
    -0.00732      0.03923  251086.00000
    -0.00732      0.04209  251187.00000
    -0.00732      0.04385  251286.00000
    -0.00732      0.04471  251386.00000
     0.99121     -0.20910  251792.00000
     0.99121     -0.40855  251892.00000
     0.99121     -0.48936  251993.00000
     0.99121     -0.49125  252092.00000
     0.99121     -0.47782  252192.00000
     0.99121     -0.47342  252293.00000
     0.99121     -0.46942  252392.00000
     0.99121     -0.46669  252492.00000
     0.99121     -0.46485  252593.00000
     0.99121     -0.46299  252692.00000
    -0.99365      0.46383  253638.00000
    -0.99365      0.67636  253739.00000
    -0.99365      0.77488  253840.00000
    -0.99365      0.76834  253939.00000
    -0.99365      0.76272  254039.00000
    -0.99365      0.75811  254140.00000
    -0.99365      0.75416  254239.00000
    -0.99365      0.75030  254340.00000
    -0.99365      0.74722  254439.00000
    -0.99365      0.74533  254539.00000
    -0.00732      0.38210  255202.00000
    -0.00732      0.13046  255303.00000
    -0.00732      0.04641  255403.00000
    -0.00732      0.04328  255504.00000
    -0.00732      0.05014  255603.00000
    -0.00732      0.05422  255703.00000
    -0.00732      0.05676  255804.00000
    -0.00732      0.06132  255903.00000
    -0.00732      0.06281  256004.00000
    -0.00732      0.06214  256103.00000
     0.48828     -0.00530  256441.00000
     0.48828     -0.13645  256542.00000
     0.48828     -0.21437  256642.00000
     0.48828     -0.21507  256742.00000
     0.48828     -0.21142  256842.00000
     0.48828     -0.20994  256943.00000
     0.48828     -0.20780  257042.00000
     0.48828     -0.20553  257142.00000
     0.48828     -0.20302  257243.00000
     0.48828     -0.20072  257342.00000
    -0.49072      0.30897  258154.00000
    -0.49072      0.43370  258254.00000
    -0.49072      0.47752  258355.00000
    -0.49072      0.47085  258454.00000
    -0.49072      0.46602  258554.00000
    -0.49072      0.46229  258655.00000
    -0.49072      0.45994  258754.00000
    -0.49072      0.45540  258854.00000
    -0.49072      0.45321  258955.00000
    -0.49072      0.45210  259054.00000
    -0.00732      0.31662  259650.00000
    -0.00732      0.14675  259750.00000
    -0.00732      0.07762  259851.00000
    -0.00732      0.07521  259950.00000
    -0.00732      0.08059  260049.00000
    -0.00732      0.08278  260151.00000
    -0.00732      0.08591  260250.00000
    -0.00732      0.08731  260350.00000
    -0.00732      0.08845  260451.00000
    -0.00732      0.09004  260550.00000