# Acquired on 26/08/2024 13:05:19 
# SPIDER: CNT0771454C-1_PostRodaggio_2024-08-26
# TRACKING MEASUREMENT

  # pos [mm]    force [N]     time [ms]
     0.48828     -0.09397     243.00000
     0.48828     -0.39702     344.00000
     0.48828     -0.61090     445.00000
     0.48828     -0.61806     544.00000
     0.48828     -0.61274     644.00000
     0.48828     -0.60920     745.00000
     0.48828     -0.60520     844.00000
     0.48828     -0.60175     944.00000
     0.48828     -0.59972    1045.00000
     0.48828     -0.59896    1144.00000
    -0.49316      0.28009    1956.00000
    -0.49316      0.54565    2056.00000
    -0.49316      0.63812    2157.00000
    -0.49316      0.62872    2256.00000
    -0.49316      0.61819    2356.00000
    -0.49316      0.61246    2457.00000
    -0.49316      0.60362    2556.00000
    -0.49316      0.59963    2656.00000
    -0.49316      0.59706    2757.00000
    -0.49316      0.59339    2856.00000
    -0.00732      0.40506    3457.00000
    -0.00732      0.07618    3557.00000
    -0.00732     -0.07422    3659.00000
    -0.00732     -0.08194    3758.00000
    -0.00732     -0.07513    3859.00000
    -0.00732     -0.06792    3958.00000
    -0.00732     -0.06536    4058.00000
    -0.00732     -0.06352    4159.00000
    -0.00732     -0.06303    4258.00000
    -0.00732     -0.06195    4357.00000
     0.99365     -0.70597    4763.00000
     0.99365     -1.08600    4863.00000
     0.99365     -1.17879    4963.00000
     0.99365     -1.16510    5064.00000
     0.99365     -1.15159    5163.00000
     0.99365     -1.14267    5263.00000
     0.99365     -1.12895    5364.00000
     0.99365     -1.12360    5463.00000
     0.99365     -1.11922    5563.00000
     0.99365     -1.11682    5664.00000
    -0.99365      0.70129    6609.00000
    -0.99365      1.07774    6710.00000
    -0.99365      1.19043    6811.00000
    -0.99365      1.17773    6910.00000
    -0.99365      1.16122    7010.00000
    -0.99365      1.14293    7111.00000
    -0.99365      1.13642    7210.00000
    -0.99365      1.13021    7310.00000
    -0.99365      1.12645    7411.00000
    -0.99365      1.12335    7510.00000
    -0.00732      0.36003    8173.00000
    -0.00732     -0.04007    8273.00000
    -0.00732     -0.13765    8373.00000
    -0.00732     -0.13481    8474.00000
    -0.00732     -0.12514    8573.00000
    -0.00732     -0.11806    8673.00000
    -0.00732     -0.10990    8774.00000
    -0.00732     -0.10734    8873.00000
    -0.00732     -0.10477    8973.00000
    -0.00732     -0.10245    9074.00000
     1.49414     -0.96248    9533.00000
     1.49414     -1.48693    9632.00000
     1.49414     -1.68952    9732.00000
     1.49414     -1.66728    9833.00000
     1.49414     -1.65299    9932.00000
     1.49414     -1.64329   10032.00000
     1.49414     -1.63516   10133.00000
     1.49414     -1.62744   10232.00000
     1.49414     -1.62120   10332.00000
     1.49414     -1.61139   10433.00000
    -1.49414      1.45988   11481.00000
    -1.49414      1.74864   11583.00000
    -1.49414      1.78855   11682.00000
    -1.49414      1.76561   11782.00000
    -1.49414      1.74943   11883.00000
    -1.49414      1.73711   11982.00000
    -1.49414      1.72654   12082.00000
    -1.49414      1.71171   12183.00000
    -1.49414      1.70539   12282.00000
    -1.49414      1.69983   12382.00000
    -0.00732      0.43056   13093.00000
    -0.00732     -0.03064   13194.00000
    -0.00732     -0.15761   13295.00000
    -0.00732     -0.15653   13394.00000
    -0.00732     -0.14440   13494.00000
    -0.00732     -0.13049   13595.00000
    -0.00732     -0.12460   13694.00000
    -0.00732     -0.11974   13794.00000
    -0.00732     -0.11628   13894.00000
    -0.00732     -0.11331   13994.00000
     1.99219     -1.70886   14496.00000
     1.99219     -2.14165   14597.00000
     1.99219     -2.25006   14698.00000
     1.99219     -2.23104   14797.00000
     1.99219     -2.21021   14897.00000
     1.99219     -2.18206   14998.00000
     1.99219     -2.17258   15097.00000
     1.99219     -2.16480   15197.00000
     1.99219     -2.15664   15298.00000
     1.99219     -2.14932   15397.00000
    -1.99463      1.63080   16538.00000
    -1.99463      2.20961   16639.00000
    -1.99463      2.42041   16739.00000
    -1.99463      2.39328   16840.00000
    -1.99463      2.37413   16939.00000
    -1.99463      2.35933   17039.00000
    -1.99463      2.34687   17140.00000
    -1.99463      2.33674   17239.00000
    -1.99463      2.32810   17339.00000
    -1.99463      2.31505   17440.00000
    -0.00732      0.51866   18199.00000
    -0.00732      0.00010   18300.00000
    -0.00732     -0.16596   18400.00000
    -0.00732     -0.15826   18501.00000
    -0.00732     -0.14797   18600.00000
    -0.00732     -0.14030   18700.00000
    -0.00732     -0.13365   18801.00000
    -0.00732     -0.12752   18900.00000
    -0.00732     -0.12274   19000.00000
    -0.00732     -0.11847   19100.00000
     2.49268     -2.45273   19632.00000
     2.49268     -2.79193   19733.00000
     2.49268     -2.83454   19832.00000
     2.49268     -2.80120   19932.00000
     2.49268     -2.77932   20033.00000
     2.49268     -2.76330   20132.00000
     2.49268     -2.75060   20232.00000
     2.49268     -2.73034   20333.00000
     2.49268     -2.72188   20432.00000
     2.49268     -2.71437   20532.00000
    -2.49512      2.65015   21741.00000
    -2.49512      3.04935   21841.00000
    -2.49512      3.11435   21941.00000
    -2.49512      3.08104   22042.00000
    -2.49512      3.05521   22141.00000
    -2.49512      3.03660   22241.00000
    -2.49512      3.02061   22342.00000
    -2.49512      2.99705   22441.00000
    -2.49512      2.98713   22541.00000
    -2.49512      2.97873   22642.00000
    -0.00732      0.33315   23437.00000
    -0.00732     -0.08165   23539.00000
    -0.00732     -0.19322   23638.00000
    -0.00732     -0.18676   23738.00000
    -0.00732     -0.15848   23839.00000
    -0.00732     -0.14867   23938.00000
    -0.00732     -0.14197   24038.00000
    -0.00732     -0.13622   24139.00000
    -0.00732     -0.13079   24238.00000
    -0.00732     -0.12673   24338.00000
     2.98828     -2.94595   24913.00000
     2.98828     -3.37790   25013.00000
     2.98828     -3.46427   25114.00000
     2.98828     -3.42963   25213.00000
     2.98828     -3.40067   25313.00000
     2.98828     -3.36674   25414.00000
     2.98828     -3.35445   25513.00000
     2.98828     -3.34242   25613.00000
     2.98828     -3.33173   25714.00000
     2.98828     -3.32281   25813.00000
    -2.99316      3.16449   27114.00000
    -2.99316      3.68265   27214.00000
    -2.99316      3.81054   27314.00000
    -2.99316      3.78163   27415.00000
    -2.99316      3.72709   27514.00000
    -2.99316      3.70947   27614.00000
    -2.99316      3.69388   27715.00000
    -2.99316      3.68129   27814.00000
    -2.99316      3.67011   27914.00000
    -2.99316      3.66047   28015.00000
    -0.00732      0.15201   28853.00000
    -0.00732     -0.15237   28955.00000
    -0.00732     -0.21472   29054.00000
    -0.00732     -0.19770   29154.00000
    -0.00732     -0.17844   29255.00000
    -0.00732     -0.15677   29354.00000
    -0.00732     -0.14962   29454.00000
    -0.00732     -0.14246   29555.00000
    -0.00732     -0.13754   29654.00000
    -0.00732     -0.13335   29754.00000
     3.49121     -3.44157   30367.00000
     3.49121     -3.98074   30468.00000
     3.49121     -4.13203   30569.00000
     3.49121     -4.07492   30668.00000
     3.49121     -4.05185   30768.00000
     3.49121     -4.03229   30869.00000
     3.49121     -4.01503   30968.00000
     3.49121     -4.00165   31068.00000
     3.49121     -3.99082   31169.00000
     3.49121     -3.98039   31268.00000
    -3.49365      3.94507   32629.00000
    -3.49365      4.42441   32729.00000
    -3.49365      4.52887   32830.00000
    -3.49365      4.49402   32929.00000
    -3.49365      4.43500   33029.00000
    -3.49365      4.41619   33130.00000
    -3.49365      4.39801   33229.00000
    -3.49365      4.38310   33329.00000
    -3.49365      4.36956   33430.00000
    -3.49365      4.35668   33529.00000
    -0.00732      0.28471   34405.00000
    -0.00732     -0.11350   34506.00000
    -0.00732     -0.22242   34605.00000
    -0.00732     -0.20195   34706.00000
    -0.00732     -0.18636   34805.00000
    -0.00732     -0.17536   34905.00000
    -0.00732     -0.16639   35005.00000
    -0.00732     -0.15842   35105.00000
    -0.00732     -0.15232   35205.00000
    -0.00732     -0.14697   35306.00000
     3.99170     -4.34734   35940.00000
     3.99170     -4.76197   36042.00000
     3.99170     -4.82824   36141.00000
     3.99170     -4.79029   36242.00000
     3.99170     -4.75725   36341.00000
     3.99170     -4.73229   36441.00000
     3.99170     -4.69589   36542.00000
     3.99170     -4.68095   36641.00000
     3.99170     -4.66880   36741.00000
     3.99170     -4.65799   36842.00000
    -3.99414      4.41314   38257.00000
    -3.99414      5.07056   38357.00000
    -3.99414      5.27307   38457.00000
    -3.99414      5.21309   38558.00000
    -3.99414      5.18273   38657.00000
    -3.99414      5.15836   38757.00000
    -3.99414      5.13772   38858.00000
    -3.99414      5.12221   38957.00000
    -3.99414      5.10816   39058.00000
    -3.99414      5.09479   39157.00000
    -0.00488      0.04762   40057.00000
    -0.00488     -0.20562   40157.00000
    -0.00488     -0.24946   40258.00000
    -0.00488     -0.22926   40357.00000
    -0.00488     -0.20862   40457.00000
    -0.00488     -0.19368   40557.00000
    -0.00488     -0.17266   40657.00000
    -0.00488     -0.16561   40757.00000
    -0.00488     -0.15975   40858.00000
    -0.00488     -0.15380   40957.00000
     4.49219     -5.12855   41636.00000
     4.49219     -5.49728   41737.00000
     4.49219     -5.55071   41838.00000
     4.49219     -5.50981   41937.00000
     4.49219     -5.47426   42037.00000
     4.49219     -5.42547   42138.00000
     4.49219     -5.40748   42237.00000
     4.49219     -5.39030   42337.00000
     4.49219     -5.37641   42438.00000
     4.49219     -5.36420   42537.00000
    -4.49463      5.51466   44014.00000
    -4.49463      5.96666   44115.00000
    -4.49463      6.05313   44215.00000
    -4.49463      6.00788   44316.00000
    -4.49463      5.93473   44415.00000
    -4.49463      5.91184   44515.00000
    -4.49463      5.89166   44616.00000
    -4.49463      5.87478   44715.00000
    -4.49463      5.85998   44815.00000
    -4.49463      5.84485   44916.00000
    -0.00488      0.04430   45833.00000
    -0.00488     -0.21937   45935.00000
    -0.00488     -0.26457   46034.00000
    -0.00488     -0.24096   46134.00000
    -0.00488     -0.22018   46235.00000
    -0.00488     -0.20556   46334.00000
    -0.00488     -0.18314   46434.00000
    -0.00488     -0.17363   46535.00000
    -0.00488     -0.16718   46634.00000
    -0.00488     -0.16258   46734.00000
     4.99512     -5.70589   47438.00000
     4.99512     -6.20197   47539.00000
     4.99512     -6.30955   47640.00000
     4.99512     -6.27003   47739.00000
     4.99512     -6.19738   47839.00000
     4.99512     -6.17207   47940.00000
     4.99512     -6.15013   48039.00000
     4.99512     -6.13108   48139.00000
     4.99512     -6.11509   48240.00000
     4.99512     -6.10137   48339.00000
    -4.99512      6.23346   49896.00000
    -4.99512      6.75345   49995.00000
    -4.99512      6.86268   50095.00000
    -4.99512      6.77123   50196.00000
    -4.99512      6.73911   50295.00000
    -4.99512      6.71199   50395.00000
    -4.99512      6.68662   50496.00000
    -4.99512      6.66738   50595.00000
    -4.99512      6.64958   50695.00000
    -4.99512      6.63351   50796.00000
    -0.00488      0.24175   51762.00000
    -0.00488     -0.27200   51864.00000
    -0.00488     -0.27002   51963.00000
    -0.00488     -0.24520   52063.00000
    -0.00488     -0.22642   52164.00000
    -0.00488     -0.21208   52263.00000
    -0.00488     -0.19962   52363.00000
    -0.00488     -0.18954   52464.00000
    -0.00488     -0.17466   52563.00000
    -0.00488     -0.17061   52663.00000
     5.49316     -6.49366   53385.00000
     5.49316     -6.99728   53487.00000
     5.49316     -7.09526   53586.00000
     5.49316     -7.04601   53686.00000
     5.49316     -6.96583   53787.00000
     5.49316     -6.93884   53886.00000
     5.49316     -6.91515   53986.00000
     5.49316     -6.89459   54087.00000
     5.49316     -6.87622   54186.00000
     5.49316     -6.86047   54286.00000
    -5.49316      6.84220   55854.00000
    -5.49316      7.51477   55956.00000
    -5.49316      7.70064   56055.00000
    -5.49316      7.60684   56155.00000
    -5.49316      7.56959   56256.00000
    -5.49316      7.53809   56355.00000
    -5.49316      7.51053   56455.00000
    -5.49316      7.48916   56556.00000
    -5.49316      7.47074   56655.00000
    -5.49316      7.45372   56755.00000
    -0.00488     -0.08040   57735.00000
    -0.00488     -0.26983   57836.00000
    -0.00488     -0.28831   57935.00000
    -0.00488     -0.26257   58035.00000
    -0.00488     -0.24071   58136.00000
    -0.00488     -0.22402   58235.00000
    -0.00488     -0.21075   58335.00000
    -0.00488     -0.19198   58436.00000
    -0.00488     -0.18339   58535.00000
    -0.00488     -0.17593   58635.00000
     5.99365     -6.87258   59388.00000
     5.99365     -7.91137   59488.00000
     5.99365     -7.90502   59589.00000
     5.99365     -7.84967   59688.00000
     5.99365     -7.80804   59788.00000
     5.99365     -7.77554   59889.00000
     5.99365     -7.74760   59988.00000
     5.99365     -7.72304   60088.00000
     5.99365     -7.68341   60189.00000
     5.99365     -7.66631   60288.00000
    -5.99365      7.66538   61911.00000
    -5.99365      8.37051   62011.00000
    -5.99365      8.54022   62112.00000
    -5.99365      8.48103   62211.00000
    -5.99365      8.43994   62312.00000
    -5.99365      8.40650   62412.00000
    -5.99365      8.37943   62511.00000
    -5.99365      8.35552   62612.00000
    -5.99365      8.33323   62711.00000
    -5.99365      8.29916   62811.00000
    -0.00488      0.07004   63834.00000
    -0.00488     -0.22888   63935.00000
    -0.00488     -0.29031   64034.00000
    -0.00488     -0.26505   64134.00000
    -0.00488     -0.24474   64235.00000
    -0.00488     -0.22937   64334.00000
    -0.00488     -0.21605   64434.00000
    -0.00488     -0.20570   64535.00000
    -0.00488     -0.19733   64634.00000
    -0.00488     -0.18152   64734.00000
     6.49170     -7.82700   65517.00000
     6.49170     -8.79007   65618.00000
     6.49170     -8.77500   65718.00000
     6.49170     -8.71505   65819.00000
     6.49170     -8.67007   65918.00000
     6.49170     -8.63552   66018.00000
     6.49170     -8.60450   66119.00000
     6.49170     -8.57811   66218.00000
     6.49170     -8.53686   66318.00000
     6.49170     -8.51932   66419.00000
    -6.49414      8.87980   68108.00000
    -6.49414      9.40647   68209.00000
    -6.49414      9.50632   68308.00000
    -6.49414      9.44894   68408.00000
    -6.49414      9.34647   68509.00000
    -6.49414      9.31297   68608.00000
    -6.49414      9.28371   68708.00000
    -6.49414      9.25761   68809.00000
    -6.49414      9.23476   68908.00000
    -6.49414      9.21493   69008.00000
    -0.00732      0.03536   70029.00000
    -0.00732     -0.25303   70130.00000
    -0.00732     -0.31900   70229.00000
    -0.00732     -0.29750   70329.00000
    -0.00732     -0.25022   70430.00000
    -0.00732     -0.23393   70528.00000
    -0.00732     -0.22191   70629.00000
    -0.00732     -0.21116   70730.00000
    -0.00732     -0.20276   70829.00000
    -0.00732     -0.19425   70930.00000
     6.99463     -8.74347   71718.00000
     6.99463     -9.49782   71818.00000
     6.99463     -9.68347   71919.00000
     6.99463     -9.61858   72018.00000
     6.99463     -9.57095   72118.00000
     6.99463     -9.53234   72219.00000
     6.99463     -9.49993   72318.00000
     6.99463     -9.47215   72418.00000
     6.99463     -9.44770   72519.00000
     6.99463     -9.40464   72618.00000
    -6.99463      9.35808   74352.00000
    -6.99463     10.21463   74452.00000
    -6.99463     10.46028   74552.00000
    -6.99463     10.39042   74653.00000
    -6.99463     10.33953   74752.00000
    -6.99463     10.29905   74852.00000
    -6.99463     10.26472   74953.00000
    -6.99463     10.23592   75052.00000
    -6.99463     10.21166   75152.00000
    -6.99463     10.16727   75253.00000
    -0.00732     -0.13878   76311.00000
    -0.00732     -0.30857   76411.00000
    -0.00732     -0.32430   76512.00000
    -0.00732     -0.29647   76613.00000
    -0.00732     -0.27148   76712.00000
    -0.00732     -0.25163   76812.00000
    -0.00732     -0.22667   76913.00000
    -0.00732     -0.21572   77012.00000
    -0.00732     -0.20546   77112.00000
    -0.00732     -0.19730   77213.00000
     7.49268     -9.67542   78025.00000
     7.49268    -10.45165   78125.00000
     7.49268    -10.62647   78226.00000
     7.49268    -10.55207   78325.00000
     7.49268    -10.49944   78425.00000
     7.49268    -10.45792   78526.00000
     7.49268    -10.42385   78625.00000
     7.49268    -10.39313   78725.00000
     7.49268    -10.36555   78826.00000
     7.49268    -10.32076   78925.00000
    -7.49512     11.02434   80688.00000
    -7.49512     11.49389   80789.00000
    -7.49512     11.53190   80888.00000
    -7.49512     11.45377   80988.00000
    -7.49512     11.39361   81089.00000
    -7.49512     11.34936   81188.00000
    -7.49512     11.27858   81288.00000
    -7.49512     11.25002   81389.00000
    -7.49512     11.22568   81488.00000
    -7.49512     11.20380   81588.00000
    -0.00732      0.06659   82672.00000
    -0.00732     -0.34221   82773.00000
    -0.00732     -0.32778   82873.00000
    -0.00732     -0.29969   82974.00000
    -0.00732     -0.27786   83073.00000
    -0.00732     -0.25908   83173.00000
    -0.00732     -0.24420   83274.00000
    -0.00732     -0.23134   83373.00000
    -0.00732     -0.21154   83474.00000
    -0.00732     -0.20292   83573.00000
     7.99072    -10.77972   84398.00000
     7.99072    -11.51441   84499.00000
     7.99072    -11.69495   84598.00000
     7.99072    -11.62560   84698.00000
     7.99072    -11.49412   84799.00000
     7.99072    -11.44951   84898.00000
     7.99072    -11.41299   84998.00000
     7.99072    -11.37990   85099.00000
     7.99072    -11.34961   85198.00000
     7.99072    -11.32403   85298.00000
    -7.99316     11.89220   87097.00000
    -7.99316     12.53879   87199.00000
    -7.99316     12.64880   87298.00000
    -7.99316     12.56737   87398.00000
    -7.99316     12.49781   87499.00000
    -7.99316     12.40517   87598.00000
    -7.99316     12.36835   87699.00000
    -7.99316     12.33731   87798.00000
    -7.99316     12.30908   87898.00000
    -7.99316     12.28336   87999.00000
    -0.00488     -0.16391   89093.00000
    -0.00488     -0.33319   89195.00000
    -0.00488     -0.34929   89294.00000
    -0.00488     -0.31962   89394.00000
    -0.00488     -0.29336   89494.00000
    -0.00488     -0.27346   89594.00000
    -0.00488     -0.24331   89694.00000
    -0.00488     -0.23028   89795.00000
    -0.00488     -0.22037   89894.00000
    -0.00488     -0.21248   89994.00000
     8.49121    -12.23966   90844.00000
     8.49121    -12.72842   90946.00000
     8.49121    -12.75765   91045.00000
     8.49121    -12.66194   91145.00000
     8.49121    -12.59070   91246.00000
     8.49121    -12.53534   91345.00000
     8.49121    -12.45092   91445.00000
     8.49121    -12.41637   91546.00000
     8.49121    -12.38576   91645.00000
     8.49121    -12.35815   91745.00000
    -8.49365     12.91149   93588.00000
    -8.49365     13.67298   93689.00000
    -8.49365     13.83718   93789.00000
    -8.49365     13.75799   93890.00000
    -8.49365     13.62176   93989.00000
    -8.49365     13.57672   94089.00000
    -8.49365     13.53477   94190.00000
    -8.49365     13.49562   94289.00000
    -8.49365     13.46220   94389.00000
    -8.49365     13.43511   94490.00000
    -0.00488     -0.08054   95609.00000
    -0.00488     -0.31698   95709.00000
    -0.00488     -0.36550   95810.00000
    -0.00488     -0.30984   95909.00000
    -0.00488     -0.28675   96009.00000
    -0.00488     -0.26883   96110.00000
    -0.00488     -0.25460   96209.00000
    -0.00488     -0.24201   96309.00000
    -0.00488     -0.23034   96410.00000
    -0.00488     -0.22113   96509.00000
     8.99414    -12.68587   97396.00000
     8.99414    -13.89859   97496.00000
     8.99414    -13.86204   97597.00000
     8.99414    -13.76886   97696.00000
     8.99414    -13.69903   97796.00000
     8.99414    -13.64246   97897.00000
     8.99414    -13.59510   97996.00000
     8.99414    -13.55531   98096.00000
     8.99414    -13.48828   98197.00000
     8.99414    -13.45935   98296.00000
    -8.99414     13.90188  100187.00000
    -8.99414     14.82791  100288.00000
    -8.99414     15.04230  100387.00000
    -8.99414     14.94678  100487.00000
    -8.99414     14.88043  100588.00000
    -8.99414     14.82802  100687.00000
    -8.99414     14.78125  100787.00000
    -8.99414     14.74119  100888.00000
    -8.99414     14.70585  100987.00000
    -8.99414     14.64607  101087.00000
    -0.00488      0.14734  102213.00000
    -0.00488     -0.36990  102314.00000
    -0.00488     -0.36617  102414.00000
    -0.00488     -0.33289  102515.00000
    -0.00488     -0.30566  102614.00000
    -0.00488     -0.28429  102714.00000
    -0.00488     -0.26848  102815.00000
    -0.00488     -0.25506  102914.00000
    -0.00488     -0.23096  103014.00000
    -0.00488     -0.22156  103115.00000
     9.49463    -14.33273  103994.00000
     9.49463    -15.01171  104096.00000
     9.49463    -15.10353  104195.00000
     9.49463    -14.99755  104296.00000
     9.49463    -14.90848  104395.00000
     9.49463    -14.78461  104495.00000
     9.49463    -14.73636  104596.00000
     9.49463    -14.69454  104695.00000
     9.49463    -14.65583  104795.00000
     9.49463    -14.62160  104896.00000
    -9.49463     15.37964  106810.00000
    -9.49463     16.28504  106912.00000
    -9.49463     16.48119  107011.00000
    -9.49463     16.38126  107112.00000
    -9.49463     16.21585  107211.00000
    -9.49463     16.16014  107311.00000
    -9.49463     16.11125  107412.00000
    -9.49463     16.06934  107511.00000
    -9.49463     16.03304  107611.00000
    -9.49463     15.99970  107712.00000
    -0.00488      0.03314  108861.00000
    -0.00488     -0.38189  108962.00000
    -0.00488     -0.36709  109062.00000
    -0.00488     -0.33381  109162.00000
    -0.00488     -0.30730  109262.00000
    -0.00488     -0.28810  109362.00000
    -0.00488     -0.27065  109463.00000
    -0.00488     -0.25603  109562.00000
    -0.00488     -0.23436  109662.00000
    -0.00488     -0.22412  109763.00000
     9.99512    -15.41391  110672.00000
     9.99512    -16.19641  110773.00000
     9.99512    -16.35331  110874.00000
     9.99512    -16.14851  110973.00000
     9.99512    -16.07279  111073.00000
     9.99512    -16.00954  111174.00000
     9.99512    -15.95527  111273.00000
     9.99512    -15.90883  111373.00000
     9.99512    -15.86609  111474.00000
     9.99512    -15.82922  111573.00000
    -9.99512     16.91468  113556.00000
    -9.99512     17.76699  113657.00000
    -9.99512     17.93359  113757.00000
    -9.99512     17.81953  113858.00000
    -9.99512     17.63780  113957.00000
    -9.99512     17.57721  114057.00000
    -9.99512     17.52639  114158.00000
    -9.99512     17.48179  114258.00000
    -9.99512     17.44008  114357.00000
    -9.99512     17.40390  114458.00000
    -0.00732     -0.24585  115637.00000
    -0.00732     -0.38511  115739.00000
    -0.00732     -0.38921  115838.00000
    -0.00732     -0.35628  115938.00000
    -0.00732     -0.32716  116039.00000
    -0.00732     -0.30393  116138.00000
    -0.00732     -0.26938  116238.00000
    -0.00732     -0.25700  116339.00000
    -0.00732     -0.24482  116438.00000
    -0.00732     -0.23493  116538.00000
    10.49316    -17.11799  117480.00000
    10.49316    -17.61728  117579.00000
    10.49316    -17.62614  117679.00000
    10.49316    -17.48985  117780.00000
    10.49316    -17.38760  117879.00000
    10.49316    -17.31193  117979.00000
    10.49316    -17.18938  118080.00000
    10.49316    -17.14108  118179.00000
    10.49316    -17.09837  118279.00000
    10.49316    -17.05836  118380.00000
   -10.49316     18.23411  120410.00000
   -10.49316     19.23281  120511.00000
   -10.49316     19.37457  120610.00000
   -10.49316     19.25043  120710.00000
   -10.49316     19.16495  120811.00000
   -10.49316     19.09569  120910.00000
   -10.49316     19.03785  121010.00000
   -10.49316     18.98911  121111.00000
   -10.49316     18.94402  121210.00000
   -10.49316     18.86578  121310.00000
    -0.00732     -0.12871  122515.00000
    -0.00732     -0.35472  122616.00000
    -0.00732     -0.38198  122716.00000
    -0.00732     -0.35004  122817.00000
    -0.00732     -0.32524  122916.00000
    -0.00732     -0.30441  123016.00000
    -0.00732     -0.28688  123117.00000
    -0.00732     -0.27205  123216.00000
    -0.00732     -0.25951  123316.00000
    -0.00732     -0.23806  123417.00000
    10.99365    -17.62109  124363.00000
    10.99365    -19.05901  124464.00000
    10.99365    -18.97026  124565.00000
    10.99365    -18.82992  124664.00000
    10.99365    -18.72983  124764.00000
    10.99365    -18.65062  124865.00000
    10.99365    -18.58108  124964.00000
    10.99365    -18.52143  125064.00000
    10.99365    -18.42131  125165.00000
    10.99365    -18.37884  125264.00000
   -10.99365     20.13894  127302.00000
   -10.99365     21.01861  127402.00000
   -10.99365     21.14126  127502.00000
   -10.99365     20.98865  127603.00000
   -10.99365     20.86811  127702.00000
   -10.99365     20.71161  127802.00000
   -10.99365     20.65099  127903.00000
   -10.99365     20.59733  128002.00000
   -10.99365     20.54930  128102.00000
   -10.99365     20.50621  128203.00000
    -0.00488     -0.20389  129407.00000
    -0.00488     -0.39319  129507.00000
    -0.00488     -0.42242  129608.00000
    -0.00488     -0.38862  129707.00000
    -0.00488     -0.32924  129807.00000
    -0.00488     -0.30960  129908.00000
    -0.00488     -0.29234  130007.00000
    -0.00488     -0.27694  130107.00000
    -0.00488     -0.26389  130208.00000
    -0.00488     -0.25365  130307.00000
    10.99121    -17.99709  131254.00000
    10.99121    -18.81547  131356.00000
    10.99121    -18.95530  131455.00000
    10.99121    -18.82738  131555.00000
    10.99121    -18.61550  131656.00000
    10.99121    -18.54048  131755.00000
    10.99121    -18.47480  131855.00000
    10.99121    -18.41923  131956.00000
    10.99121    -18.37166  132055.00000
    10.99121    -18.32846  132155.00000
   -10.99365     20.37105  134199.00000
   -10.99365     21.02769  134301.00000
   -10.99365     21.03990  134400.00000
   -10.99365     20.88124  134500.00000
   -10.99365     20.77547  134601.00000
   -10.99365     20.69467  134700.00000
   -10.99365     20.56864  134800.00000
   -10.99365     20.51756  134901.00000
   -10.99365     20.47058  135000.00000
   -10.99365     20.42949  135101.00000
    -0.00488     -0.27135  136305.00000
    -0.00488     -0.41161  136406.00000
    -0.00488     -0.41664  136506.00000
    -0.00488     -0.38146  136607.00000
    -0.00488     -0.35056  136706.00000
    -0.00488     -0.32784  136806.00000
    -0.00488     -0.29134  136907.00000
    -0.00488     -0.27656  137006.00000
    -0.00488     -0.26405  137107.00000
    -0.00488     -0.25306  137206.00000
    10.49316    -16.91488  138147.00000
    10.49316    -17.38330  138247.00000
    10.49316    -17.38036  138348.00000
    10.49316    -17.24517  138447.00000
    10.49316    -17.14611  138547.00000
    10.49316    -17.07109  138648.00000
    10.49316    -16.95335  138747.00000
    10.49316    -16.90697  138847.00000
    10.49316    -16.86380  138948.00000
    10.49316    -16.82633  139047.00000
   -10.49316     18.17787  141072.00000
   -10.49316     19.08734  141173.00000
   -10.49316     19.28023  141272.00000
   -10.49316     19.04301  141373.00000
   -10.49316     18.96274  141472.00000
   -10.49316     18.89804  141572.00000
   -10.49316     18.84315  141673.00000
   -10.49316     18.79241  141772.00000
   -10.49316     18.75054  141872.00000
   -10.49316     18.71431  141973.00000
    -0.00488     -0.18909  143177.00000
    -0.00488     -0.38238  143277.00000
    -0.00488     -0.41585  143378.00000
    -0.00488     -0.35677  143477.00000
    -0.00488     -0.33092  143577.00000
    -0.00488     -0.30976  143678.00000
    -0.00488     -0.29264  143777.00000
    -0.00488     -0.27818  143877.00000
    -0.00488     -0.26578  143978.00000
    -0.00488     -0.25419  144077.00000
     9.99512    -15.34426  144988.00000
     9.99512    -15.96062  145089.00000
     9.99512    -16.02910  145188.00000
     9.99512    -15.91207  145288.00000
     9.99512    -15.81525  145389.00000
     9.99512    -15.68144  145488.00000
     9.99512    -15.63079  145588.00000
     9.99512    -15.58740  145689.00000
     9.99512    -15.54750  145788.00000
     9.99512    -15.51273  145888.00000
    -9.99512     16.98814  147865.00000
    -9.99512     17.60236  147966.00000
    -9.99512     17.63710  148066.00000
    -9.99512     17.50610  148167.00000
    -9.99512     17.41493  148266.00000
    -9.99512     17.34771  148366.00000
    -9.99512     17.24243  148467.00000
    -9.99512     17.19958  148566.00000
    -9.99512     17.16217  148666.00000
    -9.99512     17.12775  148767.00000
    -0.00488     -0.04339  149940.00000
    -0.00488     -0.41253  150042.00000
    -0.00488     -0.39524  150141.00000
    -0.00488     -0.36025  150241.00000
    -0.00488     -0.33200  150342.00000
    -0.00488     -0.31082  150441.00000
    -0.00488     -0.29353  150541.00000
    -0.00488     -0.27891  150642.00000
    -0.00488     -0.25565  150741.00000
    -0.00488     -0.24460  150841.00000
     9.49463    -14.09613  151721.00000
     9.49463    -14.68576  151822.00000
     9.49463    -14.73437  151923.00000
     9.49463    -14.62682  152022.00000
     9.49463    -14.54120  152122.00000
     9.49463    -14.47658  152223.00000
     9.49463    -14.37541  152322.00000
     9.49463    -14.33421  152422.00000
     9.49463    -14.29723  152523.00000
     9.49463    -14.26570  152622.00000
    -9.49463     15.21174  154538.00000
    -9.49463     16.02569  154639.00000
    -9.49463     16.16479  154740.00000
    -9.49463     16.05011  154839.00000
    -9.49463     15.95691  154939.00000
    -9.49463     15.83631  155040.00000
    -9.49463     15.78938  155139.00000
    -9.49463     15.75048  155240.00000
    -9.49463     15.71463  155339.00000
    -9.49463     15.68246  155439.00000
    -0.00488     -0.04174  156590.00000
    -0.00488     -0.32441  156691.00000
    -0.00488     -0.38184  156790.00000
    -0.00488     -0.34723  156890.00000
    -0.00488     -0.32184  156991.00000
    -0.00488     -0.30036  157090.00000
    -0.00488     -0.28337  157189.00000
    -0.00488     -0.26867  157291.00000
    -0.00488     -0.25614  157390.00000
    -0.00488     -0.23690  157490.00000
     8.99414    -13.10023  158377.00000
     8.99414    -13.49069  158477.00000
     8.99414    -13.49550  158578.00000
     8.99414    -13.40086  158677.00000
     8.99414    -13.32724  158777.00000
     8.99414    -13.27200  158878.00000
     8.99414    -13.18304  158977.00000
     8.99414    -13.14670  159077.00000
     8.99414    -13.11458  159178.00000
     8.99414    -13.08567  159278.00000
    -8.99414     14.38102  161168.00000
    -8.99414     14.75024  161269.00000
    -8.99414     14.72771  161368.00000
    -8.99414     14.62308  161469.00000
    -8.99414     14.55057  161568.00000
    -8.99414     14.49476  161668.00000
    -8.99414     14.44799  161769.00000
    -8.99414     14.37640  161868.00000
    -8.99414     14.34558  161968.00000
    -8.99414     14.31670  162069.00000
    -0.00488     -0.20511  163224.00000
    -0.00488     -0.36923  163325.00000
    -0.00488     -0.38827  163425.00000
    -0.00488     -0.35869  163526.00000
    -0.00488     -0.30612  163625.00000
    -0.00488     -0.28810  163725.00000
    -0.00488     -0.27302  163826.00000
    -0.00488     -0.26019  163925.00000
    -0.00488     -0.24812  164025.00000
    -0.00488     -0.23761  164126.00000
     8.49365    -11.58673  164975.00000
     8.49365    -12.25274  165075.00000
     8.49365    -12.38195  165175.00000
     8.49365    -12.29782  165276.00000
     8.49365    -12.15948  165375.00000
     8.49365    -12.11242  165475.00000
     8.49365    -12.07230  165576.00000
     8.49365    -12.03734  165675.00000
     8.49365    -12.00803  165775.00000
     8.49365    -11.98166  165876.00000
    -8.49365     12.20069  167718.00000
    -8.49365     13.17946  167818.00000
    -8.49365     13.43724  167919.00000
    -8.49365     13.34398  168018.00000
    -8.49365     13.27988  168118.00000
    -8.49365     13.23003  168219.00000
    -8.49365     13.18729  168318.00000
    -8.49365     13.14953  168418.00000
    -8.49365     13.11795  168519.00000
    -8.49365     13.06113  168618.00000
    -0.00488     -0.00411  169731.00000
    -0.00488     -0.29785  169833.00000
    -0.00488     -0.36414  169932.00000
    -0.00488     -0.33189  170032.00000
    -0.00488     -0.30663  170133.00000
    -0.00488     -0.28640  170232.00000
    -0.00488     -0.27108  170332.00000
    -0.00488     -0.25757  170433.00000
    -0.00488     -0.24471  170532.00000
    -0.00488     -0.22556  170632.00000
     7.99072    -10.47667  171464.00000
     7.99072    -11.15753  171565.00000
     7.99072    -11.30590  171666.00000
     7.99072    -11.15437  171765.00000
     7.99072    -11.10015  171865.00000
     7.99072    -11.05668  171966.00000
     7.99072    -11.01994  172065.00000
     7.99072    -10.98744  172165.00000
     7.99072    -10.95876  172266.00000
     7.99072    -10.93417  172365.00000
    -7.99316     11.56554  174165.00000
    -7.99316     12.19923  174265.00000
    -7.99316     12.30965  174366.00000
    -7.99316     12.22914  174465.00000
    -7.99316     12.15866  174565.00000
    -7.99316     12.06027  174666.00000
    -7.99316     12.02245  174765.00000
    -7.99316     11.98997  174866.00000
    -7.99316     11.96007  174965.00000
    -7.99316     11.93356  175065.00000
    -0.00488     -0.19557  176166.00000
    -0.00488     -0.35185  176267.00000
    -0.00488     -0.36447  176368.00000
    -0.00488     -0.33397  176467.00000
    -0.00488     -0.30601  176567.00000
    -0.00488     -0.28494  176668.00000
    -0.00488     -0.25581  176767.00000
    -0.00488     -0.24306  176867.00000
    -0.00488     -0.23288  176968.00000
    -0.00488     -0.22429  177067.00000
     7.49023     -9.28242  177880.00000
     7.49023    -10.06747  177982.00000
     7.49023    -10.25400  178081.00000
     7.49023    -10.17555  178181.00000
     7.49023    -10.12393  178282.00000
     7.49023    -10.08168  178381.00000
     7.49023    -10.04631  178481.00000
     7.49023    -10.01562  178582.00000
     7.49023     -9.98896  178681.00000
     7.49023     -9.94579  178781.00000
    -7.49512     10.67003  180545.00000
    -7.49512     11.15034  180646.00000
    -7.49512     11.19680  180746.00000
    -7.49512     11.11608  180847.00000
    -7.49512     11.05392  180946.00000
    -7.49512     11.00589  181046.00000
    -7.49512     10.93313  181147.00000
    -7.49512     10.90474  181246.00000
    -7.49512     10.87851  181346.00000
    -7.49512     10.85471  181447.00000
    -0.00488      0.03187  182529.00000
    -0.00488     -0.35855  182629.00000
    -0.00488     -0.34383  182730.00000
    -0.00488     -0.31282  182829.00000
    -0.00488     -0.28891  182930.00000
    -0.00488     -0.27016  183029.00000
    -0.00488     -0.25487  183129.00000
    -0.00488     -0.24204  183230.00000
    -0.00488     -0.22283  183329.00000
    -0.00488     -0.21364  183429.00000
     6.99463     -8.91761  184219.00000
     6.99463     -9.32052  184319.00000
     6.99463     -9.34869  184419.00000
     6.99463     -9.27886  184520.00000
     6.99463     -9.22459  184619.00000
     6.99463     -9.18398  184719.00000
     6.99463     -9.11798  184820.00000
     6.99463     -9.09191  184919.00000
     6.99463     -9.06809  185019.00000
     6.99463     -9.04693  185120.00000
    -6.99463      9.64607  186851.00000
    -6.99463     10.11357  186953.00000
    -6.99463     10.16409  187052.00000
    -6.99463     10.08985  187152.00000
    -6.99463     10.03055  187253.00000
    -6.99463      9.98762  187352.00000
    -6.99463      9.91930  187453.00000
    -6.99463      9.89291  187552.00000
    -6.99463      9.86935  187652.00000
    -6.99463      9.84760  187753.00000
    -0.00488     -0.04658  188810.00000
    -0.00488     -0.29196  188912.00000
    -0.00488     -0.34367  189011.00000
    -0.00488     -0.29218  189111.00000
    -0.00488     -0.27146  189212.00000
    -0.00488     -0.25533  189311.00000
    -0.00488     -0.24147  189411.00000
    -0.00488     -0.22866  189512.00000
    -0.00488     -0.21918  189611.00000
    -0.00488     -0.21081  189711.00000
     6.49414     -7.65405  190494.00000
     6.49414     -8.28461  190595.00000
     6.49414     -8.42401  190696.00000
     6.49414     -8.36363  190795.00000
     6.49414     -8.31938  190895.00000
     6.49414     -8.28615  190996.00000
     6.49414     -8.25703  191095.00000
     6.49414     -8.23047  191195.00000
     6.49414     -8.20827  191296.00000
     6.49414     -8.17328  191395.00000
    -6.49414      8.70018  193085.00000
    -6.49414      9.13472  193186.00000
    -6.49414      9.19245  193286.00000
    -6.49414      9.12718  193387.00000
    -6.49414      9.07183  193486.00000
    -6.49414      8.99835  193586.00000
    -6.49414      8.96893  193687.00000
    -6.49414      8.94548  193786.00000
    -6.49414      8.92343  193886.00000
    -6.49414      8.90331  193987.00000
    -0.00732     -0.05928  195009.00000
    -0.00732     -0.29174  195109.00000
    -0.00732     -0.33143  195209.00000
    -0.00732     -0.30393  195310.00000
    -0.00732     -0.27637  195409.00000
    -0.00732     -0.24247  195509.00000
    -0.00732     -0.22969  195610.00000
    -0.00732     -0.21794  195709.00000
    -0.00732     -0.20832  195809.00000
    -0.00732     -0.20105  195910.00000
     5.99121     -7.18903  196661.00000
     5.99121     -7.55766  196762.00000
     5.99121     -7.59313  196861.00000
     5.99121     -7.53594  196961.00000
     5.99121     -7.49063  197062.00000
     5.99121     -7.45565  197161.00000
     5.99121     -7.40132  197261.00000
     5.99121     -7.38063  197362.00000
     5.99121     -7.36134  197461.00000
     5.99121     -7.34486  197561.00000
    -5.99365      7.80035  199209.00000
    -5.99365      8.22795  199309.00000
    -5.99365      8.28133  199410.00000
    -5.99365      8.21790  199509.00000
    -5.99365      8.16752  199609.00000
    -5.99365      8.09922  199710.00000
    -5.99365      8.07248  199809.00000
    -5.99365      8.04943  199909.00000
    -5.99365      8.02955  200010.00000
    -5.99365      8.01183  200109.00000
    -0.00732     -0.14303  201125.00000
    -0.00732     -0.30055  201225.00000
    -0.00732     -0.31201  201326.00000
    -0.00732     -0.28472  201425.00000
    -0.00732     -0.26130  201525.00000
    -0.00732     -0.24233  201626.00000
    -0.00732     -0.21832  201725.00000
    -0.00732     -0.20808  201825.00000
    -0.00732     -0.19916  201926.00000
    -0.00732     -0.19198  202025.00000
     5.49072     -6.00617  202747.00000
     5.49072     -6.62452  202848.00000
     5.49072     -6.79601  202949.00000
     5.49072     -6.70308  203048.00000
     5.49072     -6.66607  203148.00000
     5.49072     -6.63681  203249.00000
     5.49072     -6.61334  203348.00000
     5.49072     -6.59240  203448.00000
     5.49072     -6.57489  203549.00000
     5.49072     -6.55939  203648.00000
    -5.49316      7.02147  205240.00000
    -5.49316      7.39447  205342.00000
    -5.49316      7.42117  205441.00000
    -5.49316      7.35814  205541.00000
    -5.49316      7.31305  205642.00000
    -5.49316      7.27928  205741.00000
    -5.49316      7.22746  205842.00000
    -5.49316      7.20593  205941.00000
    -5.49316      7.18665  206041.00000
    -5.49316      7.17030  206142.00000
    -0.00488      0.08390  207108.00000
    -0.00488     -0.22634  207209.00000
    -0.00488     -0.30495  207308.00000
    -0.00488     -0.28618  207408.00000
    -0.00488     -0.24171  207509.00000
    -0.00488     -0.22699  207608.00000
    -0.00488     -0.21486  207708.00000
    -0.00488     -0.20416  207809.00000
    -0.00488     -0.19435  207908.00000
    -0.00488     -0.18660  208008.00000
     4.99268     -5.24444  208712.00000
     4.99268     -5.85388  208813.00000
     4.99268     -6.00003  208914.00000
     4.99268     -5.94935  209013.00000
     4.99268     -5.91558  209113.00000
     4.99268     -5.89051  209214.00000
     4.99268     -5.86852  209313.00000
     4.99268     -5.84858  209413.00000
     4.99268     -5.83275  209514.00000
     4.99268     -5.80428  209613.00000
    -4.99512      6.03015  211139.00000
    -4.99512      6.52639  211240.00000
    -4.99512      6.62389  211340.00000
    -4.99512      6.57278  211441.00000
    -4.99512      6.49116  211540.00000
    -4.99512      6.46401  211640.00000
    -4.99512      6.43932  211741.00000
    -4.99512      6.41814  211840.00000
    -4.99512      6.40088  211940.00000
    -4.99512      6.38631  212041.00000
    -0.00732      0.15052  212989.00000
    -0.00732     -0.19006  213089.00000
    -0.00732     -0.28540  213190.00000
    -0.00732     -0.24836  213289.00000
    -0.00732     -0.23107  213389.00000
    -0.00732     -0.21597  213490.00000
    -0.00732     -0.20305  213589.00000
    -0.00732     -0.19341  213689.00000
    -0.00732     -0.18590  213790.00000
    -0.00732     -0.17922  213889.00000
     4.49219     -4.65202  214568.00000
     4.49219     -5.17274  214669.00000
     4.49219     -5.30790  214770.00000
     4.49219     -5.23904  214869.00000
     4.49219     -5.20965  214969.00000
     4.49219     -5.18655  215070.00000
     4.49219     -5.16553  215169.00000
     4.49219     -5.14840  215269.00000
     4.49219     -5.13403  215370.00000
     4.49219     -5.12104  215469.00000
    -4.49463      5.02196  216946.00000
    -4.49463      5.64634  217047.00000
    -4.49463      5.81183  217147.00000
    -4.49463      5.76256  217248.00000
    -4.49463      5.72790  217347.00000
    -4.49463      5.70129  217448.00000
    -4.49463      5.67897  217547.00000
    -4.49463      5.66068  217647.00000
    -4.49463      5.64350  217748.00000
    -4.49463      5.61438  217847.00000
    -0.00488      0.18273  218765.00000
    -0.00488     -0.17228  218867.00000
    -0.00488     -0.27173  218966.00000
    -0.00488     -0.23504  219066.00000
    -0.00488     -0.21753  219167.00000
    -0.00488     -0.20338  219266.00000
    -0.00488     -0.19233  219366.00000
    -0.00488     -0.18301  219466.00000
    -0.00488     -0.17493  219566.00000
    -0.00488     -0.16785  219667.00000
     3.99170     -4.22485  220302.00000
     3.99170     -4.56311  220403.00000
     3.99170     -4.59999  220502.00000
     3.99170     -4.56093  220602.00000
     3.99170     -4.52878  220703.00000
     3.99170     -4.50433  220803.00000
     3.99170     -4.48599  220902.00000
     3.99170     -4.45338  221003.00000
     3.99170     -4.44111  221102.00000
     3.99170     -4.43006  221203.00000
    -3.99414      4.38283  222618.00000
    -3.99414      4.94599  222719.00000
    -3.99414      5.09179  222819.00000
    -3.99414      5.05578  222920.00000
    -3.99414      4.98457  223019.00000
    -3.99414      4.96126  223119.00000
    -3.99414      4.94056  223220.00000
    -3.99414      4.92268  223319.00000
    -3.99414      4.90793  223419.00000
    -3.99414      4.89518  223520.00000
    -0.00732     -0.02724  224419.00000
    -0.00732     -0.22696  224520.00000
    -0.00732     -0.24906  224621.00000
    -0.00732     -0.22718  224720.00000
    -0.00732     -0.20800  224820.00000
    -0.00732     -0.19362  224921.00000
    -0.00732     -0.18230  225020.00000
    -0.00732     -0.16612  225120.00000
    -0.00732     -0.15880  225221.00000
    -0.00732     -0.15313  225320.00000
     3.49121     -3.43225  225931.00000
     3.49121     -3.84934  226033.00000
     3.49121     -3.92985  226132.00000
     3.49121     -3.89357  226232.00000
     3.49121     -3.86069  226333.00000
     3.49121     -3.82195  226432.00000
     3.49121     -3.80682  226532.00000
     3.49121     -3.79207  226633.00000
     3.49121     -3.78056  226732.00000
     3.49121     -3.77162  226832.00000
    -3.49365      3.99443  228187.00000
    -3.49365      4.32953  228289.00000
    -3.49365      4.35973  228388.00000
    -3.49365      4.31516  228488.00000
    -3.49365      4.28160  228589.00000
    -3.49365      4.25710  228688.00000
    -3.49365      4.23641  228788.00000
    -3.49365      4.20601  228889.00000
    -3.49365      4.19329  228988.00000
    -3.49365      4.18154  229088.00000
    -0.00732      0.10427  229959.00000
    -0.00732     -0.17361  230059.00000
    -0.00732     -0.23158  230159.00000
    -0.00732     -0.21443  230260.00000
    -0.00732     -0.19481  230359.00000
    -0.00732     -0.16888  230459.00000
    -0.00732     -0.15967  230560.00000
    -0.00732     -0.15253  230659.00000
    -0.00732     -0.14702  230760.00000
    -0.00732     -0.14275  230859.00000
     2.98828     -2.87463  231434.00000
     2.98828     -3.23091  231536.00000
     2.98828     -3.28294  231635.00000
     2.98828     -3.24577  231735.00000
     2.98828     -3.21870  231836.00000
     2.98828     -3.20119  231935.00000
     2.98828     -3.17301  232035.00000
     2.98828     -3.16169  232136.00000
     2.98828     -3.15105  232235.00000
     2.98828     -3.14284  232335.00000
    -2.99316      3.15731  233635.00000
    -2.99316      3.59274  233736.00000
    -2.99316      3.67273  233837.00000
    -2.99316      3.63269  233936.00000
    -2.99316      3.59984  234036.00000
    -2.99316      3.55921  234137.00000
    -2.99316      3.54403  234236.00000
    -2.99316      3.53050  234336.00000
    -2.99316      3.51904  234437.00000
    -2.99316      3.50899  234536.00000
    -0.00732      0.06086  235370.00000
    -0.00732     -0.17417  235470.00000
    -0.00732     -0.20794  235570.00000
    -0.00732     -0.19038  235671.00000
    -0.00732     -0.17323  235770.00000
    -0.00732     -0.16121  235870.00000
    -0.00732     -0.15148  235971.00000
    -0.00732     -0.13630  236070.00000
    -0.00732     -0.13068  236170.00000
    -0.00732     -0.12601  236271.00000
     2.49268     -2.06641  236803.00000
     2.49268     -2.54685  236904.00000
     2.49268     -2.67534  237003.00000
     2.49268     -2.65264  237103.00000
     2.49268     -2.60609  237204.00000
     2.49268     -2.59240  237303.00000
     2.49268     -2.58105  237403.00000
     2.49268     -2.57165  237504.00000
     2.49268     -2.56206  237603.00000
     2.49268     -2.55363  237703.00000
    -2.49512      2.28209  238913.00000
    -2.49512      2.83963  239013.00000
    -2.49512      3.00786  239113.00000
    -2.49512      2.99005  239214.00000
    -2.49512      2.93637  239313.00000
    -2.49512      2.91819  239413.00000
    -2.49512      2.90417  239514.00000
    -2.49512      2.89074  239613.00000
    -2.49512      2.88015  239713.00000
    -2.49512      2.87078  239814.00000
    -0.00732      0.60376  240609.00000
    -0.00732     -0.15940  240710.00000
    -0.00732     -0.17896  240810.00000
    -0.00732     -0.16118  240910.00000
    -0.00732     -0.14646  241011.00000
    -0.00732     -0.13622  241110.00000
    -0.00732     -0.12806  241210.00000
    -0.00732     -0.12155  241311.00000
    -0.00732     -0.11166  241410.00000
    -0.00732     -0.10853  241510.00000
     1.99219     -1.25233  242012.00000
     1.99219     -2.07670  242114.00000
     1.99219     -2.09488  242213.00000
     1.99219     -2.06889  242313.00000
     1.99219     -2.05125  242414.00000
     1.99219     -2.03696  242513.00000
     1.99219     -2.02610  242613.00000
     1.99219     -2.01875  242714.00000
     1.99219     -2.00371  242813.00000
     1.99219     -1.99722  242913.00000
    -1.99219      1.92022  244055.00000
    -1.99219      2.29487  244155.00000
    -1.99219      2.36681  244256.00000
    -1.99219      2.33771  244355.00000
    -1.99219      2.31229  244456.00000
    -1.99219      2.29552  244555.00000
    -1.99219      2.27280  244655.00000
    -1.99219      2.26258  244756.00000
    -1.99219      2.25410  244855.00000
    -1.99219      2.24600  244955.00000
    -0.00732      0.20518  245710.00000
    -0.00732     -0.09521  245810.00000
    -0.00732     -0.15351  245911.00000
    -0.00732     -0.13978  246010.00000
    -0.00732     -0.12657  246110.00000
    -0.00732     -0.11739  246210.00000
    -0.00732     -0.10893  246310.00000
    -0.00732     -0.09780  246410.00000
    -0.00732     -0.09429  246511.00000
    -0.00732     -0.09080  246610.00000
     1.49414     -0.92852  247070.00000
     1.49414     -1.38735  247171.00000
     1.49414     -1.54869  247272.00000
     1.49414     -1.52864  247371.00000
     1.49414     -1.51584  247471.00000
     1.49414     -1.50533  247572.00000
     1.49414     -1.49587  247671.00000
     1.49414     -1.48844  247771.00000
     1.49414     -1.48312  247872.00000
     1.49414     -1.47793  247971.00000
    -1.49414      0.93548  249021.00000
    -1.49414      1.73781  249122.00000
    -1.49414      1.76118  249222.00000
    -1.49414      1.73416  249323.00000
    -1.49414      1.71671  249422.00000
    -1.49414      1.70293  249522.00000
    -1.49414      1.69129  249623.00000
    -1.49414      1.68389  249722.00000
    -1.49414      1.67108  249822.00000
    -1.49414      1.66625  249923.00000
    -0.00732      0.38693  250632.00000
    -0.00732     -0.01824  250734.00000
    -0.00732     -0.11833  250833.00000
    -0.00732     -0.11206  250933.00000
    -0.00732     -0.10037  251034.00000
    -0.00732     -0.08556  251133.00000
    -0.00732     -0.07916  251233.00000
    -0.00732     -0.07389  251334.00000
    -0.00732     -0.07095  251433.00000
    -0.00732     -0.06817  251533.00000
     0.99121     -0.64446  251938.00000
     0.99121     -0.96364  252038.00000
     0.99121     -1.04145  252139.00000
     0.99121     -1.02605  252238.00000
     0.99121     -1.01265  252338.00000
     0.99121     -1.00427  252439.00000
     0.99121     -0.99063  252538.00000
     0.99121     -0.98477  252638.00000
     0.99121     -0.98001  252739.00000
     0.99121     -0.97656  252838.00000
    -0.99365      0.76110  253784.00000
    -0.99365      1.10754  253885.00000
    -0.99365      1.19993  253984.00000
    -0.99365      1.18432  254084.00000
    -0.99365      1.16862  254185.00000
    -0.99365      1.15152  254284.00000
    -0.99365      1.14493  254384.00000
    -0.99365      1.14026  254485.00000
    -0.99365      1.13518  254584.00000
    -0.99365      1.13080  254684.00000
    -0.00732      0.34682  255347.00000
    -0.00732     -0.00233  255448.00000
    -0.00732     -0.07705  255549.00000
    -0.00732     -0.07173  255648.00000
    -0.00732     -0.06084  255748.00000
    -0.00732     -0.05482  255849.00000
    -0.00732     -0.05039  255948.00000
    -0.00732     -0.04396  256048.00000
    -0.00732     -0.04026  256149.00000
    -0.00732     -0.03748  256248.00000
     0.49072     -0.20778  256585.00000
     0.49072     -0.45284  256686.00000
     0.49072     -0.54169  256787.00000
     0.49072     -0.53061  256886.00000
     0.49072     -0.52021  256986.00000
     0.49072     -0.51392  257087.00000
     0.49072     -0.50719  257186.00000
     0.49072     -0.50406  257286.00000
     0.49072     -0.50117  257387.00000
     0.49072     -0.49917  257486.00000
    -0.49316      0.19067  258298.00000
    -0.49316      0.43243  258399.00000
    -0.49316      0.65914  258500.00000
    -0.49316      0.64366  258599.00000
    -0.49316      0.63464  258699.00000
    -0.49316      0.62991  258800.00000
    -0.49316      0.62556  258899.00000
    -0.49316      0.62264  258999.00000
    -0.49316      0.61994  259100.00000
    -0.49316      0.61476  259199.00000
    -0.00732      0.55370  259788.00000
    -0.00732      0.30081  259889.00000
    -0.00732     -0.02083  259990.00000
    -0.00732     -0.01576  260089.00000
    -0.00732     -0.01127  260189.00000
    -0.00732     -0.00735  260290.00000
    -0.00732     -0.00338  260389.00000
    -0.00732     -0.00219  260489.00000
    -0.00732     -0.00103  260589.00000
    -0.00732      0.00226  260689.00000