# Acquired on 27/08/2024 15:32:28 
# SPIDER: CNT0771454C-1_24h_PostRodaggio_2024-08-27
# TRACKING MEASUREMENT

  # pos [mm]    force [N]     time [ms]
     0.49072     -0.09447     236.00000
     0.49072     -0.38208     338.00000
     0.49072     -0.56627     437.00000
     0.49072     -0.56424     536.00000
     0.49072     -0.55784     638.00000
     0.49072     -0.55300     737.00000
     0.49072     -0.54909     838.00000
     0.49072     -0.54563     937.00000
     0.49072     -0.54247    1037.00000
     0.49072     -0.53969    1138.00000
    -0.49316      0.42782    1950.00000
    -0.49316      0.71104    2050.00000
    -0.49316      0.79185    2150.00000
    -0.49316      0.78193    2251.00000
    -0.49316      0.77350    2350.00000
    -0.49316      0.76734    2450.00000
    -0.49316      0.76226    2551.00000
    -0.49316      0.75475    2650.00000
    -0.49316      0.75194    2750.00000
    -0.49316      0.74884    2851.00000
    -0.00732      0.48068    3451.00000
    -0.00732      0.13832    3552.00000
    -0.00732      0.02283    3652.00000
    -0.00732      0.02272    3753.00000
    -0.00732      0.02956    3852.00000
    -0.00732      0.03423    3953.00000
    -0.00732      0.03979    4052.00000
    -0.00732      0.04058    4152.00000
    -0.00732      0.04179    4253.00000
    -0.00732      0.04304    4352.00000
     0.99365     -0.74943    4756.00000
     0.99365     -1.06238    4857.00000
     0.99365     -1.11173    4956.00000
     0.99365     -1.09336    5056.00000
     0.99365     -1.08145    5157.00000
     0.99365     -1.07397    5256.00000
     0.99365     -1.06724    5356.00000
     0.99365     -1.05662    5457.00000
     0.99365     -1.05228    5556.00000
     0.99365     -1.04879    5656.00000
    -0.99365      0.53658    6596.00000
    -0.99365      1.36560    6698.00000
    -0.99365      1.42790    6797.00000
    -0.99365      1.41144    6898.00000
    -0.99365      1.39853    6997.00000
    -0.99365      1.38875    7097.00000
    -0.99365      1.38140    7198.00000
    -0.99365      1.37513    7297.00000
    -0.99365      1.36473    7397.00000
    -0.99365      1.36090    7498.00000
    -0.00732      0.89837    8159.00000
    -0.00732      0.30546    8259.00000
    -0.00732     -0.00511    8360.00000
    -0.00732      0.00532    8459.00000
    -0.00732      0.01181    8559.00000
    -0.00732      0.01764    8660.00000
    -0.00732      0.02161    8759.00000
    -0.00732      0.02504    8860.00000
    -0.00732      0.02847    8959.00000
    -0.00732      0.03172    9059.00000
     1.49170     -1.19370    9519.00000
     1.49170     -1.57859    9619.00000
     1.49170     -1.65747    9720.00000
     1.49170     -1.63600    9819.00000
     1.49170     -1.61822    9919.00000
     1.49170     -1.60682   10020.00000
     1.49170     -1.59104   10119.00000
     1.49170     -1.58472   10219.00000
     1.49170     -1.57934   10320.00000
     1.49170     -1.57478   10419.00000
    -1.49414      1.38654   11475.00000
    -1.49414      1.90045   11576.00000
    -1.49414      2.06243   11677.00000
    -1.49414      2.05644   11776.00000
    -1.49414      2.02183   11876.00000
    -1.49414      2.01021   11977.00000
    -1.49414      2.00189   12076.00000
    -1.49414      1.99400   12176.00000
    -1.49414      1.98776   12277.00000
    -1.49414      1.98201   12376.00000
    -0.00732      1.01224   13088.00000
    -0.00732      0.01480   13188.00000
    -0.00732     -0.02721   13288.00000
    -0.00732     -0.01448   13389.00000
    -0.00732     -0.00373   13488.00000
    -0.00732      0.00394   13588.00000
    -0.00732      0.00916   13689.00000
    -0.00732      0.01262   13788.00000
    -0.00732      0.01656   13888.00000
    -0.00732      0.02194   13989.00000
     1.99463     -1.35406   14489.00000
     1.99463     -1.98368   14591.00000
     1.99463     -2.24333   14690.00000
     1.99463     -2.21750   14791.00000
     1.99463     -2.20156   14890.00000
     1.99463     -2.18908   14990.00000
     1.99463     -2.17798   15091.00000
     1.99463     -2.16949   15190.00000
     1.99463     -2.16312   15290.00000
     1.99463     -2.14942   15391.00000
    -1.99219      2.31951   16531.00000
    -1.99219      2.67909   16632.00000
    -1.99219      2.73304   16731.00000
    -1.99219      2.70559   16831.00000
    -1.99219      2.68600   16932.00000
    -1.99219      2.67109   17031.00000
    -1.99219      2.65888   17131.00000
    -1.99219      2.64018   17232.00000
    -1.99219      2.63221   17331.00000
    -1.99219      2.62508   17431.00000
    -0.00732      1.00511   18191.00000
    -0.00732     -0.00240   18293.00000
    -0.00732     -0.04622   18392.00000
    -0.00732     -0.03142   18492.00000
    -0.00732     -0.01807   18593.00000
    -0.00732     -0.00965   18692.00000
    -0.00732     -0.00238   18792.00000
    -0.00732      0.00311   18893.00000
    -0.00732      0.01081   18991.00000
    -0.00732      0.01429   19092.00000
     2.49512     -2.29593   19625.00000
     2.49512     -2.76391   19726.00000
     2.49512     -2.87098   19827.00000
     2.49512     -2.84782   19926.00000
     2.49512     -2.82481   20026.00000
     2.49512     -2.79647   20127.00000
     2.49512     -2.78501   20226.00000
     2.49512     -2.77480   20326.00000
     2.49512     -2.76683   20427.00000
     2.49512     -2.75994   20526.00000
    -2.49512      2.78942   21734.00000
    -2.49512      3.30346   21835.00000
    -2.49512      3.42717   21934.00000
    -2.49512      3.40223   22034.00000
    -2.49512      3.37541   22135.00000
    -2.49512      3.34164   22234.00000
    -2.49512      3.32845   22334.00000
    -2.49512      3.31743   22435.00000
    -2.49512      3.30819   22534.00000
    -2.49512      3.30019   22634.00000
    -0.00732      0.64861   23431.00000
    -0.00732      0.11711   23531.00000
    -0.00732     -0.05287   23633.00000
    -0.00732     -0.04209   23732.00000
    -0.00732     -0.02961   23832.00000
    -0.00732     -0.02048   23933.00000
    -0.00732     -0.01327   24032.00000
    -0.00732     -0.00775   24132.00000
    -0.00732     -0.00184   24233.00000
    -0.00732      0.00367   24332.00000
     2.99072     -2.88899   24908.00000
     2.99072     -3.39299   25008.00000
     2.99072     -3.51532   25108.00000
     2.99072     -3.48584   25209.00000
     2.99072     -3.43803   25308.00000
     2.99072     -3.42341   25408.00000
     2.99072     -3.41023   25509.00000
     2.99072     -3.39937   25608.00000
     2.99072     -3.38948   25708.00000
     2.99072     -3.38067   25809.00000
    -2.99316      3.41774   27108.00000
    -2.99316      3.98449   27209.00000
    -2.99316      4.13321   27308.00000
    -2.99316      4.10801   27408.00000
    -2.99316      4.05495   27509.00000
    -2.99316      4.03744   27608.00000
    -2.99316      4.02248   27708.00000
    -2.99316      4.00964   27809.00000
    -2.99316      3.99819   27908.00000
    -2.99316      3.98917   28008.00000
    -0.00732      0.32454   28842.00000
    -0.00732     -0.01464   28943.00000
    -0.00732     -0.08369   29044.00000
    -0.00732     -0.06805   29142.00000
    -0.00732     -0.05114   29243.00000
    -0.00732     -0.03887   29344.00000
    -0.00732     -0.02105   29443.00000
    -0.00732     -0.01532   29543.00000
    -0.00732     -0.01016   29644.00000
    -0.00732     -0.00565   29743.00000
     3.48877     -3.57821   30355.00000
     3.48877     -4.07210   30457.00000
     3.48877     -4.18362   30556.00000
     3.48877     -4.14972   30656.00000
     3.48877     -4.09780   30757.00000
     3.48877     -4.08013   30856.00000
     3.48877     -4.06497   30956.00000
     3.48877     -4.05257   31057.00000
     3.48877     -4.04171   31156.00000
     3.48877     -4.03180   31256.00000
    -3.49365      4.44140   32611.00000
    -3.49365      4.81938   32712.00000
    -3.49365      4.86457   32811.00000
    -3.49365      4.82259   32911.00000
    -3.49365      4.79141   33012.00000
    -3.49365      4.76913   33111.00000
    -3.49365      4.75157   33211.00000
    -3.49365      4.72299   33312.00000
    -3.49365      4.71180   33411.00000
    -3.49365      4.70032   33511.00000
    -0.00732      0.28828   34381.00000
    -0.00732     -0.03299   34482.00000
    -0.00732     -0.10044   34582.00000
    -0.00732     -0.08348   34683.00000
    -0.00732     -0.06551   34782.00000
    -0.00732     -0.04139   34882.00000
    -0.00732     -0.03355   34983.00000
    -0.00732     -0.02693   35082.00000
    -0.00732     -0.02032   35182.00000
    -0.00732     -0.01516   35283.00000
     3.99170     -3.93506   35919.00000
     3.99170     -4.62919   36019.00000
     3.99170     -4.86376   36119.00000
     3.99170     -4.82224   36220.00000
     3.99170     -4.79530   36319.00000
     3.99170     -4.77431   36419.00000
     3.99170     -4.75724   36520.00000
     3.99170     -4.74171   36619.00000
     3.99170     -4.72923   36719.00000
     3.99170     -4.70883   36820.00000
    -3.99414      5.08637   38241.00000
    -3.99414      5.54471   38343.00000
    -3.99414      5.61984   38442.00000
    -3.99414      5.57362   38542.00000
    -3.99414      5.53685   38643.00000
    -3.99414      5.51148   38742.00000
    -3.99414      5.47372   38842.00000
    -3.99414      5.45807   38943.00000
    -3.99414      5.44413   39042.00000
    -3.99414      5.43114   39142.00000
    -0.00732      0.50405   40030.00000
    -0.00732      0.03536   40131.00000
    -0.00732     -0.11257   40232.00000
    -0.00732     -0.08937   40331.00000
    -0.00732     -0.07451   40430.00000
    -0.00732     -0.06097   40532.00000
    -0.00732     -0.05068   40631.00000
    -0.00732     -0.04193   40732.00000
    -0.00732     -0.03577   40831.00000
    -0.00732     -0.03010   40931.00000
     4.49219     -4.95202   41610.00000
     4.49219     -5.48117   41711.00000
     4.49219     -5.61441   41812.00000
     4.49219     -5.54007   41911.00000
     4.49219     -5.51399   42012.00000
     4.49219     -5.49271   42111.00000
     4.49219     -5.47385   42211.00000
     4.49219     -5.45778   42312.00000
     4.49219     -5.44400   42411.00000
     4.49219     -5.43203   42511.00000
    -4.49463      5.45389   44006.00000
    -4.49463      6.38254   44108.00000
    -4.49463      6.37079   44207.00000
    -4.49463      6.32259   44307.00000
    -4.49463      6.29004   44408.00000
    -4.49463      6.26551   44507.00000
    -4.49463      6.24449   44607.00000
    -4.49463      6.22547   44708.00000
    -4.49463      6.19583   44807.00000
    -4.49463      6.18379   44907.00000
    -0.00732      0.43017   45826.00000
    -0.00732     -0.00289   45926.00000
    -0.00732     -0.13394   46027.00000
    -0.00732     -0.10406   46126.00000
    -0.00732     -0.08569   46226.00000
    -0.00732     -0.07259   46326.00000
    -0.00732     -0.06249   46426.00000
    -0.00732     -0.05541   46526.00000
    -0.00732     -0.04774   46627.00000
    -0.00732     -0.04101   46726.00000
     4.99268     -5.47158   47430.00000
     4.99268     -6.37327   47531.00000
     4.99268     -6.36195   47631.00000
     4.99268     -6.31692   47732.00000
     4.99268     -6.28423   47831.00000
     4.99268     -6.25889   47931.00000
     4.99268     -6.23860   48032.00000
     4.99268     -6.21991   48131.00000
     4.99268     -6.20375   48231.00000
     4.99268     -6.17787   48332.00000
    -4.99512      6.35020   49881.00000
    -4.99512      7.00778   49981.00000
    -4.99512      7.16971   50082.00000
    -4.99512      7.12073   50181.00000
    -4.99512      7.08696   50281.00000
    -4.99512      7.06049   50382.00000
    -4.99512      7.03809   50481.00000
    -4.99512      7.01737   50581.00000
    -4.99512      6.99897   50682.00000
    -4.99512      6.96845   50781.00000
    -0.00732      0.50068   51730.00000
    -0.00732      0.02318   51832.00000
    -0.00732     -0.14642   51931.00000
    -0.00732     -0.12246   52031.00000
    -0.00732     -0.10342   52132.00000
    -0.00732     -0.08807   52231.00000
    -0.00732     -0.07637   52331.00000
    -0.00732     -0.06700   52432.00000
    -0.00732     -0.05946   52531.00000
    -0.00732     -0.04709   52631.00000
     5.49316     -6.66820   53353.00000
     5.49316     -7.11047   53455.00000
     5.49316     -7.17671   53554.00000
     5.49316     -7.12581   53654.00000
     5.49316     -7.08445   53755.00000
     5.49316     -7.05336   53854.00000
     5.49316     -7.00665   53954.00000
     5.49316     -6.98779   54055.00000
     5.49316     -6.97250   54154.00000
     5.49316     -6.95775   54254.00000
    -5.49316      7.42571   55816.00000
    -5.49316      7.94854   55917.00000
    -5.49316      8.04485   56018.00000
    -5.49316      7.98998   56117.00000
    -5.49316      7.94200   56217.00000
    -5.49316      7.87919   56318.00000
    -5.49316      7.85601   56417.00000
    -5.49316      7.83629   56518.00000
    -5.49316      7.81781   56617.00000
    -5.49316      7.80084   56717.00000
    -0.00732      0.37662   57691.00000
    -0.00732     -0.03671   57791.00000
    -0.00732     -0.16350   57892.00000
    -0.00732     -0.13143   57991.00000
    -0.00732     -0.11203   58091.00000
    -0.00732     -0.09593   58191.00000
    -0.00732     -0.08369   58291.00000
    -0.00732     -0.07413   58391.00000
    -0.00732     -0.06638   58492.00000
    -0.00732     -0.05973   58591.00000
     5.99365     -7.39629   59344.00000
     5.99365     -7.91252   59444.00000
     5.99365     -8.01621   59544.00000
     5.99365     -7.96491   59645.00000
     5.99365     -7.88216   59744.00000
     5.99365     -7.85569   59844.00000
     5.99365     -7.83140   59945.00000
     5.99365     -7.81014   60044.00000
     5.99365     -7.79204   60145.00000
     5.99365     -7.77556   60244.00000
    -5.99365      8.27783   61890.00000
    -5.99365      8.81927   61992.00000
    -5.99365      8.92944   62091.00000
    -5.99365      8.87830   62191.00000
    -5.99365      8.78963   62292.00000
    -5.99365      8.75775   62391.00000
    -5.99365      8.73131   62492.00000
    -5.99365      8.70926   62591.00000
    -5.99365      8.68841   62691.00000
    -5.99365      8.66933   62792.00000
    -0.00732      0.07478   63814.00000
    -0.00732     -0.14861   63913.00000
    -0.00732     -0.18222   64013.00000
    -0.00732     -0.15826   64114.00000
    -0.00732     -0.13613   64213.00000
    -0.00732     -0.10441   64313.00000
    -0.00732     -0.09277   64414.00000
    -0.00732     -0.08378   64513.00000
    -0.00732     -0.07583   64613.00000
    -0.00732     -0.06938   64714.00000
     6.49414     -8.30981   65495.00000
     6.49414     -8.80430   65596.00000
     6.49414     -8.89707   65697.00000
     6.49414     -8.84193   65796.00000
     6.49414     -8.75346   65896.00000
     6.49414     -8.72228   65997.00000
     6.49414     -8.69751   66096.00000
     6.49414     -8.67528   66196.00000
     6.49414     -8.65545   66297.00000
     6.49414     -8.63837   66396.00000
    -6.49170      8.91863   68074.00000
    -6.49170      9.86495   68175.00000
    -6.49170      9.83629   68274.00000
    -6.49170      9.77286   68374.00000
    -6.49170      9.72936   68475.00000
    -6.49170      9.69381   68574.00000
    -6.49170      9.66455   68674.00000
    -6.49170      9.63900   68775.00000
    -6.49170      9.61649   68874.00000
    -6.49170      9.57694   68974.00000
    -0.00732      0.34415   69996.00000
    -0.00732     -0.06567   70097.00000
    -0.00732     -0.18881   70196.00000
    -0.00732     -0.16023   70296.00000
    -0.00732     -0.13870   70397.00000
    -0.00732     -0.12133   70496.00000
    -0.00732     -0.10863   70596.00000
    -0.00732     -0.09780   70697.00000
    -0.00732     -0.08899   70796.00000
    -0.00732     -0.08132   70897.00000
     6.99463     -8.58178   71685.00000
     6.99463     -9.81060   71785.00000
     6.99463     -9.81208   71886.00000
     6.99463     -9.74719   71985.00000
     6.99463     -9.70062   72085.00000
     6.99463     -9.66428   72186.00000
     6.99463     -9.63235   72285.00000
     6.99463     -9.60555   72385.00000
     6.99463     -9.56119   72486.00000
     6.99463     -9.54260   72585.00000
    -6.99219      9.55919   74319.00000
    -6.99219     10.84215   74419.00000
    -6.99219     10.83161   74519.00000
    -6.99219     10.76043   74620.00000
    -6.99219     10.70999   74719.00000
    -6.99219     10.67023   74819.00000
    -6.99219     10.63611   74920.00000
    -6.99219     10.60717   75019.00000
    -6.99219     10.56019   75119.00000
    -6.99219     10.53952   75220.00000
    -0.00488      0.02729   76278.00000
    -0.00488     -0.18168   76379.00000
    -0.00488     -0.20907   76479.00000
    -0.00488     -0.18189   76580.00000
    -0.00488     -0.15750   76679.00000
    -0.00488     -0.14002   76779.00000
    -0.00488     -0.11192   76880.00000
    -0.00488     -0.10096   76979.00000
    -0.00488     -0.09215   77079.00000
    -0.00488     -0.08485   77180.00000
     7.49512     -9.77850   77992.00000
     7.49512    -10.57999   78093.00000
     7.49512    -10.78304   78194.00000
     7.49512    -10.71731   78293.00000
     7.49512    -10.66882   78393.00000
     7.49512    -10.62927   78494.00000
     7.49512    -10.59656   78593.00000
     7.49512    -10.56873   78693.00000
     7.49512    -10.54412   78794.00000
     7.49512    -10.50060   78893.00000
    -7.49512     11.33275   80669.00000
    -7.49512     11.84388   80769.00000
    -7.49512     11.90280   80869.00000
    -7.49512     11.82710   80970.00000
    -7.49512     11.76643   81069.00000
    -7.49512     11.72058   81169.00000
    -7.49512     11.64972   81270.00000
    -7.49512     11.62071   81369.00000
    -7.49512     11.59669   81469.00000
    -7.49512     11.57435   81570.00000
    -0.00732      0.22188   82651.00000
    -0.00732     -0.12405   82752.00000
    -0.00732     -0.20929   82853.00000
    -0.00732     -0.18019   82952.00000
    -0.00732     -0.15674   83052.00000
    -0.00732     -0.14053   83153.00000
    -0.00732     -0.12613   83252.00000
    -0.00732     -0.11336   83352.00000
    -0.00732     -0.10393   83453.00000
    -0.00732     -0.08731   83552.00000
     7.99072    -10.99328   84384.00000
     7.99072    -11.69162   84484.00000
     7.99072    -11.84574   84584.00000
     7.99072    -11.77369   84685.00000
     7.99072    -11.65361   84784.00000
     7.99072    -11.61244   84884.00000
     7.99072    -11.57767   84985.00000
     7.99072    -11.54749   85084.00000
     7.99072    -11.52180   85184.00000
     7.99072    -11.49833   85285.00000
    -7.99316     12.37252   87083.00000
    -7.99316     12.95067   87184.00000
    -7.99316     13.02615   87285.00000
    -7.99316     12.94095   87384.00000
    -7.99316     12.87349   87484.00000
    -7.99316     12.82351   87585.00000
    -7.99316     12.74662   87684.00000
    -7.99316     12.71737   87784.00000
    -7.99316     12.69122   87885.00000
    -7.99316     12.66550   87984.00000
    -0.00732     -0.07343   89080.00000
    -0.00732     -0.22712   89180.00000
    -0.00732     -0.23152   89280.00000
    -0.00732     -0.20129   89381.00000
    -0.00732     -0.17660   89480.00000
    -0.00732     -0.15688   89580.00000
    -0.00732     -0.14169   89681.00000
    -0.00732     -0.12892   89780.00000
    -0.00732     -0.10863   89880.00000
    -0.00732     -0.10055   89981.00000
     8.48877    -11.55954   90830.00000
     8.48877    -12.91480   90931.00000
     8.48877    -12.88427   91031.00000
     8.48877    -12.79474   91132.00000
     8.48877    -12.73366   91231.00000
     8.48877    -12.68635   91331.00000
     8.48877    -12.64675   91432.00000
     8.48877    -12.61031   91531.00000
     8.48877    -12.55382   91631.00000
     8.48877    -12.52883   91732.00000
    -8.49365     13.69454   93567.00000
    -8.49365     14.19246   93668.00000
    -8.49365     14.21167   93769.00000
    -8.49365     14.11366   93868.00000
    -8.49365     14.04544   93968.00000
    -8.49365     13.99241   94069.00000
    -8.49365     13.95075   94168.00000
    -8.49365     13.88305   94268.00000
    -8.49365     13.85274   94369.00000
    -8.49365     13.82667   94468.00000
    -0.00732     -0.08534   95582.00000
    -0.00732     -0.24146   95682.00000
    -0.00732     -0.24576   95783.00000
    -0.00732     -0.21326   95882.00000
    -0.00732     -0.18789   95982.00000
    -0.00732     -0.16876   96083.00000
    -0.00732     -0.15274   96182.00000
    -0.00732     -0.12700   96282.00000
    -0.00732     -0.11633   96383.00000
    -0.00732     -0.10844   96482.00000
     8.98926    -13.46267   97369.00000
     8.98926    -13.98963   97469.00000
     8.98926    -14.04774   97570.00000
     8.98926    -13.95208   97669.00000
     8.98926    -13.87681   97769.00000
     8.98926    -13.77380   97870.00000
     8.98926    -13.73333   97969.00000
     8.98926    -13.69840   98069.00000
     8.98926    -13.66874   98170.00000
     8.98926    -13.63994   98269.00000
    -8.99170     14.85058  100179.00000
    -8.99170     15.44260  100279.00000
    -8.99170     15.51257  100380.00000
    -8.99170     15.40920  100479.00000
    -8.99170     15.33021  100579.00000
    -8.99170     15.22682  100680.00000
    -8.99170     15.18484  100779.00000
    -8.99170     15.14975  100879.00000
    -8.99170     15.11852  100980.00000
    -8.99170     15.08942  101079.00000
    -0.00732      0.06505  102223.00000
    -0.00732     -0.20126  102324.00000
    -0.00732     -0.26451  102424.00000
    -0.00732     -0.21285  102525.00000
    -0.00732     -0.19030  102624.00000
    -0.00732     -0.17125  102724.00000
    -0.00732     -0.15512  102825.00000
    -0.00732     -0.14224  102924.00000
    -0.00732     -0.13178  103025.00000
    -0.00732     -0.12230  103124.00000
     9.48975    -13.68079  104004.00000
     9.48975    -15.26205  104106.00000
     9.48975    -15.22331  104205.00000
     9.48975    -15.11557  104306.00000
     9.48975    -15.04185  104405.00000
     9.48975    -14.98285  104505.00000
     9.48975    -14.93414  104606.00000
     9.48975    -14.89097  104705.00000
     9.48975    -14.81976  104805.00000
     9.48975    -14.78896  104906.00000
    -9.49219     15.22226  106808.00000
    -9.49219     16.47604  106909.00000
    -9.49219     16.85993  107008.00000
    -9.49219     16.75162  107108.00000
    -9.49219     16.67806  107209.00000
    -9.49219     16.61855  107308.00000
    -9.49219     16.56997  107408.00000
    -9.49219     16.52875  107509.00000
    -9.49219     16.49163  107608.00000
    -9.49219     16.42695  107708.00000
    -0.00488     -0.08210  108852.00000
    -0.00488     -0.26035  108953.00000
    -0.00488     -0.27221  109054.00000
    -0.00488     -0.23903  109153.00000
    -0.00488     -0.21166  109254.00000
    -0.00488     -0.18992  109353.00000
    -0.00488     -0.17233  109453.00000
    -0.00488     -0.14488  109554.00000
    -0.00488     -0.13392  109653.00000
    -0.00488     -0.12462  109753.00000
     9.99268    -15.34296  110670.00000
     9.99268    -16.28774  110771.00000
     9.99268    -16.47182  110871.00000
     9.99268    -16.36690  110972.00000
     9.99268    -16.28966  111071.00000
     9.99268    -16.22807  111171.00000
     9.99268    -16.17628  111272.00000
     9.99268    -16.12978  111371.00000
     9.99268    -16.08956  111471.00000
     9.99268    -16.02069  111571.00000
    -9.99268     17.14372  113553.00000
    -9.99268     18.14535  113655.00000
    -9.99268     18.39553  113754.00000
    -9.99268     18.20254  113854.00000
    -9.99268     18.12730  113955.00000
    -9.99268     18.06584  114054.00000
    -9.99268     18.01451  114154.00000
    -9.99268     17.96958  114255.00000
    -9.99268     17.93052  114354.00000
    -9.99268     17.89513  114454.00000
    -0.00488     -0.09129  115641.00000
    -0.00488     -0.26726  115743.00000
    -0.00488     -0.28652  115842.00000
    -0.00488     -0.25497  115942.00000
    -0.00488     -0.22612  116043.00000
    -0.00488     -0.18519  116142.00000
    -0.00488     -0.16903  116242.00000
    -0.00488     -0.15642  116343.00000
    -0.00488     -0.14459  116442.00000
    -0.00488     -0.13500  116542.00000
    10.49072    -17.23968  117483.00000
    10.49072    -17.80582  117584.00000
    10.49072    -17.84048  117683.00000
    10.49072    -17.71191  117783.00000
    10.49072    -17.61271  117884.00000
    10.49072    -17.47572  117983.00000
    10.49072    -17.42212  118083.00000
    10.49072    -17.37543  118184.00000
    10.49072    -17.33388  118283.00000
    10.49072    -17.29501  118383.00000
   -10.49072     18.70281  120415.00000
   -10.49072     19.72239  120515.00000
   -10.49072     19.87708  120616.00000
   -10.49072     19.75951  120715.00000
   -10.49072     19.67901  120815.00000
   -10.49072     19.61360  120915.00000
   -10.49072     19.55825  121015.00000
   -10.49072     19.50932  121116.00000
   -10.49072     19.46575  121215.00000
   -10.49072     19.42682  121315.00000
    -0.00488     -0.01313  122526.00000
    -0.00488     -0.25013  122627.00000
    -0.00488     -0.27904  122727.00000
    -0.00488     -0.24768  122828.00000
    -0.00488     -0.22298  122927.00000
    -0.00488     -0.20337  123027.00000
    -0.00488     -0.18695  123128.00000
    -0.00488     -0.17190  123227.00000
    -0.00488     -0.15944  123327.00000
    -0.00488     -0.13910  123428.00000
    10.99365    -17.90056  124374.00000
    10.99365    -18.97998  124475.00000
    10.99365    -19.16188  124576.00000
    10.99365    -19.02361  124675.00000
    10.99365    -18.92928  124775.00000
    10.99365    -18.85388  124876.00000
    10.99365    -18.79031  124975.00000
    10.99365    -18.73415  125075.00000
    10.99365    -18.68384  125176.00000
    10.99365    -18.59944  125275.00000
   -10.99365     20.92417  127300.00000
   -10.99365     21.62141  127402.00000
   -10.99365     21.65921  127501.00000
   -10.99365     21.51346  127602.00000
   -10.99365     21.40796  127701.00000
   -10.99365     21.32724  127801.00000
   -10.99365     21.25962  127902.00000
   -10.99365     21.15091  128001.00000
   -10.99365     21.10596  128101.00000
   -10.99365     21.06519  128202.00000
    -0.00488     -0.16614  129406.00000
    -0.00488     -0.30803  129506.00000
    -0.00488     -0.31000  129607.00000
    -0.00488     -0.27399  129706.00000
    -0.00488     -0.24300  129806.00000
    -0.00488     -0.22101  129907.00000
    -0.00488     -0.20275  130006.00000
    -0.00488     -0.17295  130106.00000
    -0.00488     -0.16039  130207.00000
    -0.00488     -0.15091  130306.00000
    10.99121    -18.61887  131248.00000
    10.99121    -19.12962  131348.00000
    10.99121    -19.10379  131449.00000
    10.99121    -18.95402  131548.00000
    10.99121    -18.85144  131648.00000
    10.99121    -18.77296  131749.00000
    10.99121    -18.70697  131848.00000
    10.99121    -18.59856  131948.00000
    10.99121    -18.55449  132049.00000
    10.99121    -18.51397  132148.00000
   -10.99121     20.48550  134181.00000
   -10.99121     21.44178  134281.00000
   -10.99121     21.61168  134381.00000
   -10.99121     21.47974  134482.00000
   -10.99121     21.27850  134581.00000
   -10.99121     21.20797  134681.00000
   -10.99121     21.14967  134782.00000
   -10.99121     21.09912  134881.00000
   -10.99121     21.05330  134982.00000
   -10.99121     21.01319  135081.00000
    -0.00488     -0.07518  136292.00000
    -0.00488     -0.28682  136394.00000
    -0.00488     -0.32229  136493.00000
    -0.00488     -0.29082  136593.00000
    -0.00488     -0.23371  136694.00000
    -0.00488     -0.21277  136793.00000
    -0.00488     -0.19486  136893.00000
    -0.00488     -0.18062  136994.00000
    -0.00488     -0.17006  137093.00000
    -0.00488     -0.15890  137193.00000
    10.49072    -16.85933  138134.00000
    10.49072    -17.50346  138236.00000
    10.49072    -17.58564  138335.00000
    10.49072    -17.46375  138435.00000
    10.49072    -17.28596  138536.00000
    10.49072    -17.22315  138635.00000
    10.49072    -17.17076  138735.00000
    10.49072    -17.12449  138836.00000
    10.49072    -17.08421  138935.00000
    10.49072    -17.04768  139036.00000
   -10.49316     18.29153  141066.00000
   -10.49316     19.42966  141167.00000
   -10.49316     19.68544  141268.00000
   -10.49316     19.56268  141367.00000
   -10.49316     19.48058  141468.00000
   -10.49316     19.41539  141567.00000
   -10.49316     19.35995  141667.00000
   -10.49316     19.31216  141768.00000
   -10.49316     19.27083  141867.00000
   -10.49316     19.19937  141967.00000
    -0.00732      0.01378  143179.00000
    -0.00732     -0.31519  143279.00000
    -0.00732     -0.29409  143379.00000
    -0.00732     -0.26018  143480.00000
    -0.00732     -0.23301  143579.00000
    -0.00732     -0.21250  143679.00000
    -0.00732     -0.19673  143780.00000
    -0.00732     -0.18149  143879.00000
    -0.00732     -0.15712  143979.00000
    -0.00732     -0.14718  144080.00000
     9.99268    -15.28993  144990.00000
     9.99268    -16.04811  145090.00000
     9.99268    -16.19197  145191.00000
     9.99268    -16.08567  145290.00000
     9.99268    -15.91590  145390.00000
     9.99268    -15.85806  145491.00000
     9.99268    -15.80809  145590.00000
     9.99268    -15.76556  145690.00000
     9.99268    -15.72926  145791.00000
     9.99268    -15.69589  145890.00000
    -9.99268     17.31876  147866.00000
    -9.99268     18.01027  147968.00000
    -9.99268     18.09075  148067.00000
    -9.99268     17.97418  148168.00000
    -9.99268     17.88505  148267.00000
    -9.99268     17.81965  148367.00000
    -9.99268     17.71842  148468.00000
    -9.99268     17.67620  148567.00000
    -9.99268     17.63870  148667.00000
    -9.99268     17.60661  148768.00000
    -0.00488     -0.20694  149953.00000
    -0.00488     -0.30687  150055.00000
    -0.00488     -0.29568  150154.00000
    -0.00488     -0.26097  150254.00000
    -0.00488     -0.23336  150355.00000
    -0.00488     -0.21077  150454.00000
    -0.00488     -0.19397  150554.00000
    -0.00488     -0.16747  150655.00000
    -0.00488     -0.15582  150754.00000
    -0.00488     -0.14718  150855.00000
     9.49219    -14.12962  151734.00000
     9.49219    -14.78942  151834.00000
     9.49219    -14.86898  151935.00000
     9.49219    -14.75722  152034.00000
     9.49219    -14.67230  152135.00000
     9.49219    -14.60855  152234.00000
     9.49219    -14.51243  152334.00000
     9.49219    -14.47385  152435.00000
     9.49219    -14.43957  152534.00000
     9.49219    -14.40996  152634.00000
    -9.49463     15.78364  154538.00000
    -9.49463     16.48655  154638.00000
    -9.49463     16.56262  154739.00000
    -9.49463     16.44757  154838.00000
    -9.49463     16.36376  154938.00000
    -9.49463     16.30168  155039.00000
    -9.49463     16.20732  155138.00000
    -9.49463     16.16996  155238.00000
    -9.49463     16.13575  155339.00000
    -9.49463     16.10496  155438.00000
    -0.00488      0.00278  156582.00000
    -0.00488     -0.25116  156683.00000
    -0.00488     -0.30346  156783.00000
    -0.00488     -0.27434  156884.00000
    -0.00488     -0.21858  156983.00000
    -0.00488     -0.19821  157084.00000
    -0.00488     -0.18235  157183.00000
    -0.00488     -0.16866  157283.00000
    -0.00488     -0.15771  157384.00000
    -0.00488     -0.14777  157483.00000
     8.98926    -12.62622  158369.00000
     8.98926    -13.43003  158470.00000
     8.98926    -13.57332  158570.00000
     8.98926    -13.48012  158671.00000
     8.98926    -13.41823  158770.00000
     8.98926    -13.36744  158870.00000
     8.98926    -13.32456  158971.00000
     8.98926    -13.28963  159070.00000
     8.98926    -13.25759  159170.00000
     8.98926    -13.20426  159271.00000
    -8.99170     13.98366  161180.00000
    -8.99170     14.90059  161281.00000
    -8.99170     15.09221  161381.00000
    -8.99170     14.99536  161482.00000
    -8.99170     14.93263  161581.00000
    -8.99170     14.88273  161681.00000
    -8.99170     14.84045  161782.00000
    -8.99170     14.80368  161882.00000
    -8.99170     14.77107  161981.00000
    -8.99170     14.71750  162082.00000
    -0.00488     -0.15253  163224.00000
    -0.00488     -0.28447  163326.00000
    -0.00488     -0.28480  163425.00000
    -0.00488     -0.25203  163526.00000
    -0.00488     -0.22455  163625.00000
    -0.00488     -0.20361  163725.00000
    -0.00488     -0.18746  163826.00000
    -0.00488     -0.16085  163925.00000
    -0.00488     -0.14958  164025.00000
    -0.00488     -0.13959  164126.00000
     8.48877    -12.10047  164974.00000
     8.48877    -12.48333  165076.00000
     8.48877    -12.46631  165175.00000
     8.48877    -12.37219  165276.00000
     8.48877    -12.30852  165375.00000
     8.48877    -12.25870  165475.00000
     8.48877    -12.21823  165576.00000
     8.48877    -12.18330  165675.00000
     8.48877    -12.12476  165775.00000
     8.48877    -12.09977  165876.00000
    -8.49365     13.26483  167711.00000
    -8.49365     13.79955  167812.00000
    -8.49365     13.83764  167912.00000
    -8.49365     13.73903  168013.00000
    -8.49365     13.67058  168112.00000
    -8.49365     13.61809  168212.00000
    -8.49365     13.53966  168313.00000
    -8.49365     13.50716  168412.00000
    -8.49365     13.47847  168512.00000
    -8.49365     13.45408  168613.00000
    -0.00488     -0.11330  169726.00000
    -0.00488     -0.27188  169827.00000
    -0.00488     -0.27672  169928.00000
    -0.00488     -0.24430  170027.00000
    -0.00488     -0.21850  170127.00000
    -0.00488     -0.19773  170228.00000
    -0.00488     -0.17944  170327.00000
    -0.00488     -0.15318  170427.00000
    -0.00488     -0.14348  170528.00000
    -0.00488     -0.13429  170627.00000
     7.99316    -10.28380  171452.00000
     7.99316    -11.15577  171553.00000
     7.99316    -11.37976  171652.00000
     7.99316    -11.30087  171752.00000
     7.99316    -11.24684  171853.00000
     7.99316    -11.20351  171952.00000
     7.99316    -11.16720  172052.00000
     7.99316    -11.13573  172153.00000
     7.99316    -11.10817  172252.00000
     7.99316    -11.06198  172352.00000
    -7.99316     11.69435  174158.00000
    -7.99316     12.46172  174259.00000
    -7.99316     12.64626  174359.00000
    -7.99316     12.49819  174460.00000
    -7.99316     12.44546  174559.00000
    -7.99316     12.40180  174659.00000
    -7.99316     12.36474  174760.00000
    -7.99316     12.33340  174859.00000
    -7.99316     12.30649  174959.00000
    -7.99316     12.28253  175060.00000
    -0.00732     -0.04001  176154.00000
    -0.00732     -0.24319  176256.00000
    -0.00732     -0.27050  176355.00000
    -0.00732     -0.24125  176456.00000
    -0.00732     -0.21288  176555.00000
    -0.00732     -0.19089  176655.00000
    -0.00732     -0.15980  176756.00000
    -0.00732     -0.14858  176855.00000
    -0.00732     -0.13910  176955.00000
    -0.00732     -0.13032  177056.00000
     7.49512     -9.34855  177869.00000
     7.49512    -10.15123  177969.00000
     7.49512    -10.36638  178069.00000
     7.49512    -10.29760  178170.00000
     7.49512    -10.24776  178269.00000
     7.49512    -10.20764  178369.00000
     7.49512    -10.17360  178470.00000
     7.49512    -10.14513  178569.00000
     7.49512    -10.12025  178669.00000
     7.49512    -10.07670  178770.00000
    -7.49512     10.94124  180544.00000
    -7.49512     11.45540  180645.00000
    -7.49512     11.51686  180744.00000
    -7.49512     11.44060  180844.00000
    -7.49512     11.37978  180945.00000
    -7.49512     11.33383  181045.00000
    -7.49512     11.26451  181144.00000
    -7.49512     11.23644  181245.00000
    -7.49512     11.21153  181344.00000
    -7.49512     11.18973  181444.00000
    -0.00732      0.16928  182528.00000
    -0.00732     -0.25929  182629.00000
    -0.00732     -0.24549  182730.00000
    -0.00732     -0.21504  182829.00000
    -0.00732     -0.19238  182929.00000
    -0.00732     -0.17403  183030.00000
    -0.00732     -0.15804  183129.00000
    -0.00732     -0.14513  183229.00000
    -0.00732     -0.13456  183330.00000
    -0.00732     -0.11887  183429.00000
     6.99463     -9.02602  184217.00000
     6.99463     -9.40356  184319.00000
     6.99463     -9.42306  184418.00000
     6.99463     -9.35563  184519.00000
     6.99463     -9.30433  184618.00000
     6.99463     -9.26508  184718.00000
     6.99463     -9.23355  184819.00000
     6.99463     -9.18198  184919.00000
     6.99463     -9.16085  185018.00000
     6.99463     -9.14186  185119.00000
    -6.99463     10.09982  186844.00000
    -6.99463     10.45570  186945.00000
    -6.99463     10.45772  187046.00000
    -6.99463     10.38486  187145.00000
    -6.99463     10.33332  187245.00000
    -6.99463     10.29352  187346.00000
    -6.99463     10.26043  187445.00000
    -6.99463     10.23187  187545.00000
    -6.99463     10.18336  187646.00000
    -6.99463     10.16377  187745.00000
    -0.00488     -0.01259  188804.00000
    -0.00488     -0.21707  188905.00000
    -0.00488     -0.24430  189006.00000
    -0.00488     -0.21666  189105.00000
    -0.00488     -0.19189  189205.00000
    -0.00488     -0.15720  189306.00000
    -0.00488     -0.14405  189405.00000
    -0.00488     -0.13292  189505.00000
    -0.00488     -0.12305  189606.00000
    -0.00488     -0.11471  189705.00000
     6.49414     -7.96850  190487.00000
     6.49414     -8.43684  190589.00000
     6.49414     -8.51799  190688.00000
     6.49414     -8.46150  190788.00000
     6.49414     -8.37073  190889.00000
     6.49414     -8.33991  190988.00000
     6.49414     -8.31411  191089.00000
     6.49414     -8.29290  191188.00000
     6.49414     -8.27296  191288.00000
     6.49414     -8.25359  191389.00000
    -6.49414      8.59204  193066.00000
    -6.49414      9.29374  193167.00000
    -6.49414      9.46342  193268.00000
    -6.49414      9.40085  193367.00000
    -6.49414      9.35544  193467.00000
    -6.49414      9.31989  193568.00000
    -6.49414      9.29090  193667.00000
    -6.49414      9.26535  193767.00000
    -6.49414      9.24290  193868.00000
    -6.49414      9.20608  193967.00000
    -0.00732      0.25213  194989.00000
    -0.00732     -0.11984  195090.00000
    -0.00732     -0.22323  195191.00000
    -0.00732     -0.19540  195290.00000
    -0.00732     -0.17298  195390.00000
    -0.00732     -0.15520  195491.00000
    -0.00732     -0.14145  195590.00000
    -0.00732     -0.12967  195690.00000
    -0.00732     -0.12019  195791.00000
    -0.00732     -0.11155  195890.00000
     5.99365     -7.00059  196642.00000
     5.99365     -7.53979  196743.00000
     5.99365     -7.65990  196843.00000
     5.99365     -7.60814  196944.00000
     5.99365     -7.52202  197043.00000
     5.99365     -7.49438  197143.00000
     5.99365     -7.47007  197244.00000
     5.99365     -7.44859  197343.00000
     5.99365     -7.42955  197443.00000
     5.99365     -7.41315  197544.00000
    -5.99121      7.85320  199190.00000
    -5.99121      8.43889  199292.00000
    -5.99121      8.57710  199391.00000
    -5.99121      8.47974  199491.00000
    -5.99121      8.44127  199592.00000
    -5.99121      8.40966  199691.00000
    -5.99121      8.38302  199791.00000
    -5.99121      8.36041  199891.00000
    -5.99121      8.34012  199991.00000
    -5.99121      8.32148  200092.00000
    -0.00732      0.05049  201106.00000
    -0.00732     -0.17946  201208.00000
    -0.00732     -0.21893  201307.00000
    -0.00732     -0.19429  201407.00000
    -0.00732     -0.16887  201508.00000
    -0.00732     -0.13756  201607.00000
    -0.00732     -0.12503  201707.00000
    -0.00732     -0.11484  201808.00000
    -0.00732     -0.10666  201907.00000
    -0.00732     -0.09812  202007.00000
     5.49316     -5.87319  202729.00000
     5.49316     -6.83715  202830.00000
     5.49316     -6.82248  202929.00000
     5.49316     -6.76780  203029.00000
     5.49316     -6.72971  203130.00000
     5.49316     -6.70218  203229.00000
     5.49316     -6.67901  203329.00000
     5.49316     -6.65874  203430.00000
     5.49316     -6.64053  203529.00000
     5.49316     -6.61041  203629.00000
    -5.49072      6.57756  205191.00000
    -5.49072      7.69265  205292.00000
    -5.49072      7.68735  205393.00000
    -5.49072      7.62995  205492.00000
    -5.49072      7.59023  205592.00000
    -5.49072      7.55898  205693.00000
    -5.49072      7.53201  205792.00000
    -5.49072      7.50951  205892.00000
    -5.49072      7.47469  205993.00000
    -5.49072      7.45853  206092.00000
    -0.00488      0.09131  207066.00000
    -0.00488     -0.16058  207166.00000
    -0.00488     -0.20515  207267.00000
    -0.00488     -0.18044  207366.00000
    -0.00488     -0.15712  207466.00000
    -0.00488     -0.13875  207567.00000
    -0.00488     -0.11563  207666.00000
    -0.00488     -0.10450  207766.00000
    -0.00488     -0.09507  207867.00000
    -0.00488     -0.08791  207966.00000
     4.99512     -5.47758  208670.00000
     4.99512     -5.96788  208771.00000
     4.99512     -6.07281  208871.00000
     4.99512     -6.03331  208972.00000
     4.99512     -5.96007  209071.00000
     4.99512     -5.93692  209171.00000
     4.99512     -5.91714  209272.00000
     4.99512     -5.89985  209371.00000
     4.99512     -5.88394  209471.00000
     4.99512     -5.86992  209572.00000
    -4.99512      6.33140  211121.00000
    -4.99512      6.80090  211221.00000
    -4.99512      6.88591  211322.00000
    -4.99512      6.83575  211421.00000
    -4.99512      6.79106  211521.00000
    -4.99512      6.73439  211622.00000
    -4.99512      6.71331  211721.00000
    -4.99512      6.69419  211821.00000
    -4.99512      6.67828  211922.00000
    -4.99512      6.66231  212021.00000
    -0.00732      0.22069  212970.00000
    -0.00732     -0.10614  213071.00000
    -0.00732     -0.18911  213170.00000
    -0.00732     -0.17366  213270.00000
    -0.00732     -0.13092  213371.00000
    -0.00732     -0.11800  213470.00000
    -0.00732     -0.10574  213570.00000
    -0.00732     -0.09523  213671.00000
    -0.00732     -0.08745  213770.00000
    -0.00732     -0.08091  213870.00000
     4.48975     -4.79833  214549.00000
     4.48975     -5.23955  214651.00000
     4.48975     -5.32605  214750.00000
     4.48975     -5.28285  214850.00000
     4.48975     -5.21745  214951.00000
     4.48975     -5.19662  215050.00000
     4.48975     -5.17844  215150.00000
     4.48975     -5.16285  215251.00000
     4.48975     -5.14977  215350.00000
     4.48975     -5.13721  215450.00000
    -4.49463      5.31708  216946.00000
    -4.49463      5.92379  217047.00000
    -4.49463      6.06754  217147.00000
    -4.49463      6.02015  217248.00000
    -4.49463      5.98868  217347.00000
    -4.49463      5.96377  217447.00000
    -4.49463      5.94408  217548.00000
    -4.49463      5.92725  217647.00000
    -4.49463      5.91118  217747.00000
    -4.49463      5.88494  217848.00000
    -0.00488      0.26613  218759.00000
    -0.00488     -0.08531  218860.00000
    -0.00488     -0.17419  218961.00000
    -0.00488     -0.15750  219060.00000
    -0.00488     -0.13332  219160.00000
    -0.00488     -0.10374  219261.00000
    -0.00488     -0.09309  219360.00000
    -0.00488     -0.08418  219460.00000
    -0.00488     -0.07621  219561.00000
    -0.00488     -0.06983  219660.00000
     3.99170     -3.64013  220296.00000
     3.99170     -4.60363  220397.00000
     3.99170     -4.60568  220498.00000
     3.99170     -4.56208  220597.00000
     3.99170     -4.53263  220697.00000
     3.99170     -4.51162  220798.00000
     3.99170     -4.49365  220897.00000
     3.99170     -4.47777  220998.00000
     3.99170     -4.45294  221097.00000
     3.99170     -4.44297  221197.00000
    -3.99414      4.77367  222620.00000
    -3.99414      5.25570  222719.00000
    -3.99414      5.34901  222819.00000
    -3.99414      5.30554  222920.00000
    -3.99414      5.26799  223019.00000
    -3.99414      5.21804  223119.00000
    -3.99414      5.20045  223220.00000
    -3.99414      5.18560  223319.00000
    -3.99414      5.17341  223419.00000
    -3.99414      5.16109  223520.00000
    -0.00732      0.45440  224413.00000
    -0.00732      0.00357  224513.00000
    -0.00732     -0.14675  224613.00000
    -0.00732     -0.12370  224714.00000
    -0.00732     -0.10647  224813.00000
    -0.00732     -0.09334  224913.00000
    -0.00732     -0.08272  225014.00000
    -0.00732     -0.07394  225113.00000
    -0.00732     -0.06746  225213.00000
    -0.00732     -0.05492  225314.00000
     3.49121     -2.97147  225925.00000
     3.49121     -3.92333  226026.00000
     3.49121     -3.93203  226127.00000
     3.49121     -3.89321  226226.00000
     3.49121     -3.86833  226326.00000
     3.49121     -3.84874  226427.00000
     3.49121     -3.83259  226526.00000
     3.49121     -3.81889  226626.00000
     3.49121     -3.79522  226727.00000
     3.49121     -3.78642  226826.00000
    -3.49365      3.84642  228181.00000
    -3.49365      4.44300  228281.00000
    -3.49365      4.61795  228382.00000
    -3.49365      4.55730  228481.00000
    -3.49365      4.53083  228581.00000
    -3.49365      4.50994  228682.00000
    -3.49365      4.49295  228781.00000
    -3.49365      4.47850  228881.00000
    -3.49365      4.46691  228982.00000
    -3.49365      4.45526  229081.00000
    -0.00732      0.49905  229950.00000
    -0.00732      0.03250  230052.00000
    -0.00732     -0.12848  230151.00000
    -0.00732     -0.10725  230251.00000
    -0.00732     -0.09085  230352.00000
    -0.00732     -0.07756  230451.00000
    -0.00732     -0.06843  230551.00000
    -0.00732     -0.06041  230652.00000
    -0.00732     -0.05357  230751.00000
    -0.00732     -0.04287  230851.00000
     2.99072     -2.59834  231427.00000
     2.99072     -3.13743  231527.00000
     2.99072     -3.29622  231628.00000
     2.99072     -3.24219  231727.00000
     2.99072     -3.22199  231827.00000
     2.99072     -3.20621  231928.00000
     2.99072     -3.19192  232027.00000
     2.99072     -3.18063  232127.00000
     2.99072     -3.17082  232228.00000
     2.99072     -3.16242  232327.00000
    -2.99316      3.09718  233628.00000
    -2.99316      3.71326  233729.00000
    -2.99316      3.90863  233829.00000
    -2.99316      3.85833  233930.00000
    -2.99316      3.83542  234029.00000
    -2.99316      3.81759  234129.00000
    -2.99316      3.80344  234230.00000
    -2.99316      3.79133  234329.00000
    -2.99316      3.77923  234429.00000
    -2.99316      3.76764  234530.00000
    -0.00732      0.34064  235361.00000
    -0.00732     -0.02423  235463.00000
    -0.00732     -0.11265  235562.00000
    -0.00732     -0.09977  235662.00000
    -0.00732     -0.08186  235763.00000
    -0.00732     -0.05830  235862.00000
    -0.00732     -0.04938  235962.00000
    -0.00732     -0.04239  236063.00000
    -0.00732     -0.03815  236162.00000
    -0.00732     -0.03372  236262.00000
     2.49512     -1.83931  236795.00000
     2.49512     -2.44770  236896.00000
     2.49512     -2.67798  236996.00000
     2.49512     -2.64958  237097.00000
     2.49512     -2.63111  237196.00000
     2.49512     -2.61592  237297.00000
     2.49512     -2.60342  237396.00000
     2.49512     -2.59296  237496.00000
     2.49512     -2.58307  237597.00000
     2.49512     -2.56892  237696.00000
    -2.49268      2.29630  238904.00000
    -2.49268      2.96866  239006.00000
    -2.49268      3.22650  239105.00000
    -2.49268      3.19456  239205.00000
    -2.49268      3.17320  239306.00000
    -2.49268      3.15520  239405.00000
    -2.49268      3.14099  239505.00000
    -2.49268      3.13040  239606.00000
    -2.49268      3.12125  239705.00000
    -2.49268      3.10501  239805.00000
    -0.00732      0.23647  240602.00000
    -0.00732     -0.04309  240703.00000
    -0.00732     -0.08912  240804.00000
    -0.00732     -0.07162  240903.00000
    -0.00732     -0.05641  241003.00000
    -0.00732     -0.04460  241104.00000
    -0.00732     -0.03750  241203.00000
    -0.00732     -0.02366  241303.00000
    -0.00732     -0.01953  241404.00000
    -0.00732     -0.01556  241503.00000
     1.99219     -1.74916  242005.00000
     1.99219     -2.05203  242106.00000
     1.99219     -2.09615  242207.00000
     1.99219     -2.07205  242306.00000
     1.99219     -2.05338  242406.00000
     1.99219     -2.03966  242507.00000
     1.99219     -2.02964  242606.00000
     1.99219     -2.01194  242706.00000
     1.99219     -2.00524  242807.00000
     1.99219     -1.99922  242906.00000
    -1.99219      2.06478  244047.00000
    -1.99219      2.49211  244148.00000
    -1.99219      2.58742  244248.00000
    -1.99219      2.56181  244349.00000
    -1.99219      2.53796  244448.00000
    -1.99219      2.50986  244548.00000
    -1.99219      2.49938  244649.00000
    -1.99219      2.49057  244748.00000
    -1.99219      2.48336  244849.00000
    -1.99219      2.47644  244948.00000
    -0.00732      0.35096  245708.00000
    -0.00732      0.00940  245809.00000
    -0.00732     -0.06273  245909.00000
    -0.00732     -0.05065  246010.00000
    -0.00732     -0.03596  246109.00000
    -0.00732     -0.02599  246209.00000
    -0.00732     -0.01289  246310.00000
    -0.00732     -0.00681  246409.00000
    -0.00732     -0.00276  246509.00000
    -0.00732      0.00046  246610.00000
     1.49170     -0.83745  247069.00000
     1.49170     -1.33591  247169.00000
     1.49170     -1.52148  247269.00000
     1.49170     -1.49778  247370.00000
     1.49170     -1.48528  247469.00000
     1.49170     -1.47633  247569.00000
     1.49170     -1.46731  247670.00000
     1.49170     -1.45977  247769.00000
     1.49170     -1.45391  247869.00000
     1.49170     -1.44862  247970.00000
    -1.49170      1.02934  249025.00000
    -1.49170      1.92552  249126.00000
    -1.49170      1.96461  249225.00000
    -1.49170      1.94049  249325.00000
    -1.49170      1.92325  249426.00000
    -1.49170      1.91144  249525.00000
    -1.49170      1.90247  249625.00000
    -1.49170      1.89464  249726.00000
    -1.49170      1.88170  249825.00000
    -1.49170      1.87611  249926.00000
    -0.00732      0.54236  250636.00000
    -0.00732      0.09064  250738.00000
    -0.00732     -0.02799  250837.00000
    -0.00732     -0.02339  250937.00000
    -0.00732     -0.01040  251038.00000
    -0.00732      0.00527  251137.00000
    -0.00732      0.01116  251237.00000
    -0.00732      0.01559  251338.00000
    -0.00732      0.01891  251437.00000
    -0.00732      0.02240  251537.00000
     0.99365     -0.59731  251942.00000
     0.99365     -0.92798  252042.00000
     0.99365     -1.00454  252142.00000
     0.99365     -0.99057  252243.00000
     0.99365     -0.97779  252342.00000
     0.99365     -0.96845  252442.00000
     0.99365     -0.95483  252543.00000
     0.99365     -0.94943  252642.00000
     0.99365     -0.94613  252743.00000
     0.99365     -0.94173  252842.00000
    -0.99365      0.92333  253788.00000
    -0.99365      1.28369  253889.00000
    -0.99365      1.37497  253990.00000
    -0.99365      1.36130  254089.00000
    -0.99365      1.34666  254189.00000
    -0.99365      1.33607  254290.00000
    -0.99365      1.32075  254389.00000
    -0.99365      1.31643  254489.00000
    -0.99365      1.31278  254590.00000
    -0.99365      1.30876  254689.00000
    -0.00732      0.42949  255352.00000
    -0.00732      0.07902  255453.00000
    -0.00732      0.01097  255553.00000
    -0.00732      0.02010  255653.00000
    -0.00732      0.02928  255753.00000
    -0.00732      0.03577  255853.00000
    -0.00732      0.04023  255954.00000
    -0.00732      0.04609  256053.00000
    -0.00732      0.04874  256153.00000
    -0.00732      0.05092  256254.00000
     0.49316     -0.16196  256590.00000
     0.49316     -0.41574  256691.00000
     0.49316     -0.49235  256791.00000
     0.49316     -0.48079  256892.00000
     0.49316     -0.47120  256991.00000
     0.49316     -0.46477  257091.00000
     0.49316     -0.45761  257192.00000
     0.49316     -0.45537  257291.00000
     0.49316     -0.45243  257391.00000
     0.49316     -0.44921  257492.00000
    -0.49072      0.32208  258303.00000
    -0.49072      0.59563  258404.00000
    -0.49072      0.78234  258505.00000
    -0.49072      0.78588  258604.00000
    -0.49072      0.77818  258704.00000
    -0.49072      0.77348  258805.00000
    -0.49072      0.76972  258904.00000
    -0.49072      0.76556  259004.00000
    -0.49072      0.76240  259105.00000
    -0.49072      0.76040  259204.00000
    -0.00732      0.66053  259805.00000
    -0.00732      0.35177  259906.00000
    -0.00732      0.07005  260007.00000
    -0.00732      0.07724  260106.00000
    -0.00732      0.08272  260206.00000
    -0.00732      0.08548  260307.00000
    -0.00732      0.08845  260406.00000
    -0.00732      0.09123  260506.00000
    -0.00732      0.09174  260607.00000
    -0.00732      0.09450  260706.00000