# Acquired on 19/06/2024 17:00:08 
# SPIDER: CNT0771454D-RODATO_1e6_CICLI-10mm_RAW_test02
# STATIC MEASUREMENT

  # x_forw [mm]    f_forw [N]    kms_forw [N/mm]
      -10.98145      27.60047            2.51337
      -10.48096      25.38621            2.42213
       -9.98535      23.32138            2.33556
       -9.48486      21.38975            2.25515
       -8.98193      19.59345            2.18143
       -8.48145      17.94862            2.11622
       -7.97852      16.42792            2.05902
       -7.48047      15.02394            2.00842
       -6.98242      13.73739            1.96742
       -6.48193      12.51943            1.93143
       -5.98389      11.38381            1.90241
       -5.48096      10.29587            1.87848
       -4.98291       9.25743            1.85784
       -4.48486       8.26054            1.84187
       -3.98438       7.27723            1.82644
       -3.48144       6.34166            1.82156
       -2.98096       5.41658            1.81706
       -2.48291       4.52758            1.82350
       -1.98486       3.68127            1.85467
       -1.48438       2.85493            1.92332
       -0.98389       2.06735            2.10121
       -0.48340       1.27577            2.63918
        0.49072      -0.58707            1.19634
        0.98633      -1.15669            1.17272
        1.48682      -1.77107            1.19118
        1.98486      -2.46291            1.24085
        2.48779      -3.22471            1.29621
        2.98584      -4.05903            1.35943
        3.48633      -4.93827            1.41647
        3.98682      -5.88683            1.47658
        4.48486      -6.86717            1.53119
        4.98535      -7.88410            1.58145
        5.48340      -8.95586            1.63327
        5.98633     -10.07011            1.68218
        6.48438     -11.23695            1.73293
        6.98486     -12.46947            1.78521
        7.48779     -13.76332            1.83810
        7.98584     -15.11733            1.89302
        8.48389     -16.53969            1.94954
        8.98682     -18.06414            2.01007
        9.48730     -19.62571            2.06863
        9.98291     -21.23252            2.12689
       10.48096     -22.85858            2.18096
       10.98389     -24.48955            2.22959

  # x_back [mm]    f_back [N]    kms_back [N/mm]
      -10.97900      27.47550            2.50255
      -10.48096      25.06419            2.39140
       -9.98291      22.90402            2.29432
       -9.48486      20.89856            2.20336
       -8.98438      19.11047            2.12708
       -8.48145      17.44875            2.05729
       -7.98096      15.93395            1.99650
       -7.48047      14.54236            1.94404
       -6.98242      13.27880            1.90175
       -6.48193      12.06973            1.86206
       -5.98389      10.96367            1.83220
       -5.48340       9.89159            1.80392
       -4.98535       8.86741            1.77869
       -4.48731       7.89750            1.75997
       -3.98438       6.94678            1.74351
       -3.48144       6.03615            1.73381
       -2.98096       5.14597            1.72628
       -2.48291       4.29563            1.73008
       -1.98242       3.48066            1.75576
       -1.48438       2.71250            1.82737
       -0.98389       1.99457            2.02723
       -0.48340       1.29485            2.67863
        0.48340      -0.45256            0.93621
        0.98633      -1.03436            1.04870
        1.48682      -1.63818            1.10181
        1.98486      -2.29541            1.15646
        2.48779      -3.03996            1.22195
        2.98584      -3.83186            1.28334
        3.48877      -4.69551            1.34589
        3.98682      -5.60736            1.40648
        4.48731      -6.55165            1.46004
        4.98535      -7.54401            1.51323
        5.48340      -8.58459            1.56556
        5.98389      -9.68009            1.61769
        6.48682     -10.81714            1.66756
        6.98486     -12.02097            1.72100
        7.48779     -13.28796            1.77462
        7.98584     -14.62595            1.83149
        8.48389     -16.04404            1.89112
        8.98682     -17.55171            1.95305
        9.48486     -19.12165            2.01602
        9.98291     -20.77648            2.08120
       10.48096     -22.53585            2.15017
       10.98389     -24.36530            2.21828