# Acquired on 03/09/2024 15:17:55 
# SPIDER: CNT0771454B-2_PostRodaggio_2024-09-03
# TRACKING MEASUREMENT

  # pos [mm]    force [N]     time [ms]
     0.49316     -0.16647     241.00000
     0.49316     -0.74609     343.00000
     0.49316     -1.13711     442.00000
     0.49316     -1.15051     542.00000
     0.49316     -1.13643     643.00000
     0.49316     -1.12600     742.00000
     0.49316     -1.11841     842.00000
     0.49316     -1.11174     943.00000
     0.49316     -1.10604    1042.00000
     0.49316     -1.10169    1142.00000
    -0.49316      0.75437    1948.00000
    -0.49316      1.34911    2049.00000
    -0.49316      1.51885    2148.00000
    -0.49316      1.49859    2248.00000
    -0.49316      1.48068    2349.00000
    -0.49316      1.46782    2448.00000
    -0.49316      1.45785    2548.00000
    -0.49316      1.44442    2649.00000
    -0.49316      1.43856    2748.00000
    -0.49316      1.43367    2848.00000
    -0.00732      1.00097    3444.00000
    -0.00732      0.30932    3545.00000
    -0.00732      0.05697    3644.00000
    -0.00732      0.05492    3744.00000
    -0.00732      0.06661    3845.00000
    -0.00732      0.07388    3944.00000
    -0.00732      0.08382    4044.00000
    -0.00732      0.08750    4144.00000
    -0.00732      0.08966    4244.00000
    -0.00732      0.09263    4344.00000
     0.99121     -1.46618    4743.00000
     0.99121     -2.15102    4844.00000
     0.99121     -2.26570    4944.00000
     0.99121     -2.23445    5045.00000
     0.99121     -2.21094    5144.00000
     0.99121     -2.19330    5245.00000
     0.99121     -2.17877    5344.00000
     0.99121     -2.15929    5444.00000
     0.99121     -2.15005    5545.00000
     0.99121     -2.14165    5644.00000
    -0.99365      1.86854    6596.00000
    -0.99365      2.59938    6697.00000
    -0.99365      2.74619    6796.00000
    -0.99365      2.71031    6896.00000
    -0.99365      2.68335    6997.00000
    -0.99365      2.66441    7096.00000
    -0.99365      2.63494    7196.00000
    -0.99365      2.62324    7297.00000
    -0.99365      2.61465    7396.00000
    -0.99365      2.60616    7496.00000
    -0.00488      0.80219    8159.00000
    -0.00488      0.09023    8260.00000
    -0.00488     -0.03237    8361.00000
    -0.00488     -0.01403    8460.00000
    -0.00488      0.00383    8560.00000
    -0.00488      0.01580    8661.00000
    -0.00488      0.02544    8760.00000
    -0.00488      0.03728    8860.00000
    -0.00488      0.04168    8961.00000
    -0.00488      0.04597    9060.00000
     1.49170     -2.09348    9520.00000
     1.49170     -3.08400    9621.00000
     1.49170     -3.36822    9721.00000
     1.49170     -3.35099    9822.00000
     1.49170     -3.28818    9921.00000
     1.49170     -3.26911   10021.00000
     1.49170     -3.25244   10122.00000
     1.49170     -3.23874   10221.00000
     1.49170     -3.22753   10321.00000
     1.49170     -3.21788   10421.00000
    -1.49414      2.30259   11470.00000
    -1.49414      3.46655   11572.00000
    -1.49414      3.91773   11671.00000
    -1.49414      3.87167   11771.00000
    -1.49414      3.84225   11872.00000
    -1.49414      3.81851   11971.00000
    -1.49414      3.79868   12072.00000
    -1.49414      3.78252   12171.00000
    -1.49414      3.76766   12271.00000
    -1.49414      3.74278   12372.00000
    -0.00732      0.87618   13081.00000
    -0.00732      0.06856   13183.00000
    -0.00732     -0.09859   13282.00000
    -0.00732     -0.07670   13382.00000
    -0.00732     -0.05444   13483.00000
    -0.00732     -0.03891   13582.00000
    -0.00732     -0.01678   13682.00000
    -0.00732     -0.00854   13783.00000
    -0.00732     -0.00017   13882.00000
    -0.00732      0.00483   13982.00000
     1.99219     -3.70370   14484.00000
     1.99219     -4.40097   14585.00000
     1.99219     -4.51265   14686.00000
     1.99219     -4.46745   14785.00000
     1.99219     -4.43128   14885.00000
     1.99219     -4.40262   14986.00000
     1.99219     -4.36169   15085.00000
     1.99219     -4.34680   15185.00000
     1.99219     -4.33292   15286.00000
     1.99219     -4.31960   15385.00000
    -1.99219      3.95531   16526.00000
    -1.99219      4.89766   16627.00000
    -1.99219      5.13334   16728.00000
    -1.99219      5.09066   16827.00000
    -1.99219      5.00691   16927.00000
    -1.99219      4.98071   17028.00000
    -1.99219      4.95796   17127.00000
    -1.99219      4.93875   17227.00000
    -1.99219      4.92208   17328.00000
    -1.99219      4.90758   17427.00000
    -0.00732      0.95855   18187.00000
    -0.00732      0.06826   18288.00000
    -0.00732     -0.15688   18389.00000
    -0.00732     -0.13984   18488.00000
    -0.00732     -0.09269   18588.00000
    -0.00732     -0.07649   18689.00000
    -0.00732     -0.06265   18788.00000
    -0.00732     -0.05279   18888.00000
    -0.00732     -0.04482   18989.00000
    -0.00732     -0.03829   19088.00000
     2.49268     -3.93144   19620.00000
     2.49268     -5.19787   19721.00000
     2.49268     -5.66069   19820.00000
     2.49268     -5.60828   19920.00000
     2.49268     -5.57014   20021.00000
     2.49268     -5.53969   20120.00000
     2.49268     -5.51541   20221.00000
     2.49268     -5.49439   20320.00000
     2.49268     -5.47545   20420.00000
     2.49268     -5.44411   20521.00000
    -2.49268      4.48951   21729.00000
    -2.49268      5.82121   21829.00000
    -2.49268      6.32764   21930.00000
    -2.49268      6.26458   22029.00000
    -2.49268      6.22128   22129.00000
    -2.49268      6.18751   22230.00000
    -2.49268      6.15893   22329.00000
    -2.49268      6.13442   22429.00000
    -2.49268      6.11330   22530.00000
    -2.49268      6.07715   22629.00000
    -0.00732      0.58137   23426.00000
    -0.00732     -0.09340   23527.00000
    -0.00732     -0.21364   23627.00000
    -0.00732     -0.18149   23728.00000
    -0.00732     -0.15156   23827.00000
    -0.00732     -0.12895   23927.00000
    -0.00732     -0.09767   24028.00000
    -0.00732     -0.08672   24127.00000
    -0.00732     -0.07711   24227.00000
    -0.00732     -0.06914   24328.00000
     2.99072     -6.20803   24901.00000
     2.99072     -6.77772   25003.00000
     2.99072     -6.82797   25102.00000
     2.99072     -6.76765   25202.00000
     2.99072     -6.72188   25303.00000
     2.99072     -6.68757   25402.00000
     2.99072     -6.65891   25502.00000
     2.99072     -6.61325   25603.00000
     2.99072     -6.59380   25702.00000
     2.99072     -6.57643   25802.00000
    -2.99072      6.90115   27097.00000
    -2.99072      7.51683   27197.00000
    -2.99072      7.57207   27297.00000
    -2.99072      7.50029   27398.00000
    -2.99072      7.44786   27497.00000
    -2.99072      7.40741   27597.00000
    -2.99072      7.37440   27698.00000
    -2.99072      7.32064   27797.00000
    -2.99072      7.29868   27897.00000
    -2.99072      7.27942   27998.00000
    -0.00732      1.34144   28830.00000
    -0.00732     -0.22531   28932.00000
    -0.00732     -0.25133   29031.00000
    -0.00732     -0.21067   29130.00000
    -0.00732     -0.17925   29232.00000
    -0.00732     -0.15599   29331.00000
    -0.00732     -0.13781   29431.00000
    -0.00732     -0.12363   29532.00000
    -0.00732     -0.10350   29631.00000
    -0.00732     -0.09370   29731.00000
     3.49121     -7.36247   30344.00000
     3.49121     -7.93331   30445.00000
     3.49121     -7.98934   30545.00000
     3.49121     -7.92293   30646.00000
     3.49121     -7.87055   30745.00000
     3.49121     -7.83092   30846.00000
     3.49121     -7.79861   30945.00000
     3.49121     -7.74728   31045.00000
     3.49121     -7.72456   31146.00000
     3.49121     -7.70600   31245.00000
    -3.49365      8.22692   32618.00000
    -3.49365      8.78371   32718.00000
    -3.49365      8.81864   32819.00000
    -3.49365      8.73946   32918.00000
    -3.49365      8.68108   33018.00000
    -3.49365      8.63726   33119.00000
    -3.49365      8.59944   33218.00000
    -3.49365      8.54001   33318.00000
    -3.49365      8.51472   33419.00000
    -3.49365      8.49211   33518.00000
    -0.00732      0.41706   34389.00000
    -0.00732     -0.19198   34489.00000
    -0.00732     -0.30301   34589.00000
    -0.00732     -0.26387   34690.00000
    -0.00732     -0.22748   34789.00000
    -0.00732     -0.17977   34889.00000
    -0.00732     -0.16283   34990.00000
    -0.00732     -0.14856   35089.00000
    -0.00732     -0.13608   35189.00000
    -0.00732     -0.12428   35290.00000
     3.99170     -7.61055   35926.00000
     3.99170     -8.77332   36026.00000
     3.99170     -9.12819   36126.00000
     3.99170     -9.05560   36227.00000
     3.99170     -9.00338   36326.00000
     3.99170     -8.96267   36426.00000
     3.99170     -8.92896   36527.00000
     3.99170     -8.89856   36626.00000
     3.99170     -8.87266   36726.00000
     3.99170     -8.82841   36827.00000
    -3.99414      9.26610   38242.00000
    -3.99414      9.99278   38342.00000
    -3.99414     10.09031   38443.00000
    -3.99414     10.00502   38542.00000
    -3.99414      9.93713   38642.00000
    -3.99414      9.88580   38743.00000
    -3.99414      9.80659   38842.00000
    -3.99414      9.77469   38942.00000
    -3.99414      9.74573   39043.00000
    -3.99414      9.72020   39142.00000
    -0.00488      0.90928   40036.00000
    -0.00488     -0.03699   40136.00000
    -0.00488     -0.32481   40237.00000
    -0.00488     -0.27872   40336.00000
    -0.00488     -0.24398   40436.00000
    -0.00488     -0.21737   40537.00000
    -0.00488     -0.19616   40636.00000
    -0.00488     -0.18009   40736.00000
    -0.00488     -0.16718   40837.00000
    -0.00488     -0.15310   40936.00000
     4.49219     -9.15616   41621.00000
     4.49219    -10.08016   41721.00000
     4.49219    -10.27151   41823.00000
     4.49219    -10.19811   41922.00000
     4.49219    -10.14424   42022.00000
     4.49219    -10.10059   42123.00000
     4.49219    -10.06411   42222.00000
     4.49219    -10.03164   42321.00000
     4.49219    -10.00363   42422.00000
     4.49219     -9.95586   42522.00000
    -4.49463      9.79981   43999.00000
    -4.49463     11.34190   44100.00000
    -4.49463     11.31543   44201.00000
    -4.49463     11.22698   44300.00000
    -4.49463     11.16217   44400.00000
    -4.49463     11.10970   44501.00000
    -4.49463     11.06535   44600.00000
    -4.49463     11.02790   44700.00000
    -4.49463     10.96261   44801.00000
    -4.49463     10.93554   44900.00000
    -0.00732      0.84141   45818.00000
    -0.00732     -0.08586   45919.00000
    -0.00732     -0.37120   46018.00000
    -0.00732     -0.30828   46118.00000
    -0.00732     -0.27232   46219.00000
    -0.00732     -0.24409   46318.00000
    -0.00732     -0.22151   46419.00000
    -0.00732     -0.20370   46518.00000
    -0.00732     -0.18768   46618.00000
    -0.00732     -0.17331   46719.00000
     4.99268     -9.95443   47421.00000
     4.99268    -11.47426   47522.00000
     4.99268    -11.45541   47623.00000
     4.99268    -11.37242   47722.00000
     4.99268    -11.30922   47822.00000
     4.99268    -11.26033   47923.00000
     4.99268    -11.21870   48022.00000
     4.99268    -11.18325   48122.00000
     4.99268    -11.12336   48223.00000
     4.99268    -11.09869   48322.00000
    -4.99512     11.47925   49848.00000
    -4.99512     12.41374   49948.00000
    -4.99512     12.63078   50049.00000
    -4.99512     12.46501   50148.00000
    -4.99512     12.40015   50248.00000
    -4.99512     12.34552   50349.00000
    -4.99512     12.30030   50448.00000
    -4.99512     12.26018   50548.00000
    -4.99512     12.22328   50649.00000
    -4.99512     12.19010   50748.00000
    -0.00732      0.82853   51716.00000
    -0.00732     -0.39108   51817.00000
    -0.00732     -0.39413   51917.00000
    -0.00732     -0.34329   52018.00000
    -0.00732     -0.30441   52117.00000
    -0.00732     -0.27397   52217.00000
    -0.00732     -0.25063   52318.00000
    -0.00732     -0.23115   52417.00000
    -0.00732     -0.19765   52517.00000
    -0.00732     -0.18552   52618.00000
     5.49316    -11.72856   53339.00000
     5.49316    -12.50165   53440.00000
     5.49316    -12.64416   53540.00000
     5.49316    -12.56368   53641.00000
     5.49316    -12.42361   53740.00000
     5.49316    -12.37452   53840.00000
     5.49316    -12.33251   53941.00000
     5.49316    -12.29523   54040.00000
     5.49316    -12.26265   54141.00000
     5.49316    -12.23426   54240.00000
    -5.49316     12.24878   55826.00000
    -5.49316     13.90431   55927.00000
    -5.49316     13.86797   56028.00000
    -5.49316     13.76550   56127.00000
    -5.49316     13.68946   56227.00000
    -5.49316     13.62719   56328.00000
    -5.49316     13.57437   56427.00000
    -5.49316     13.52874   56527.00000
    -5.49316     13.45231   56628.00000
    -5.49316     13.41946   56727.00000
    -0.00732      0.18889   57701.00000
    -0.00732     -0.35618   57801.00000
    -0.00732     -0.44557   57902.00000
    -0.00732     -0.39335   58001.00000
    -0.00732     -0.34567   58101.00000
    -0.00732     -0.30979   58202.00000
    -0.00732     -0.26184   58301.00000
    -0.00732     -0.24301   58401.00000
    -0.00732     -0.22575   58502.00000
    -0.00732     -0.21097   58601.00000
     5.99121    -13.33781   59354.00000
     5.99121    -13.77513   59454.00000
     5.99121    -13.76919   59554.00000
     5.99121    -13.67210   59655.00000
     5.99121    -13.59686   59754.00000
     5.99121    -13.53761   59854.00000
     5.99121    -13.48763   59955.00000
     5.99121    -13.40748   60054.00000
     5.99121    -13.37458   60154.00000
     5.99121    -13.34489   60255.00000
    -5.99365     14.57775   61908.00000
    -5.99365     15.17884   62009.00000
    -5.99365     15.22036   62109.00000
    -5.99365     15.10841   62210.00000
    -5.99365     15.01899   62309.00000
    -5.99365     14.94848   62409.00000
    -5.99365     14.83782   62510.00000
    -5.99365     14.79195   62609.00000
    -5.99365     14.75065   62709.00000
    -5.99365     14.71450   62810.00000
    -0.00732      0.87040   63800.00000
    -0.00732     -0.46213   63900.00000
    -0.00732     -0.46318   64002.00000
    -0.00732     -0.40335   64101.00000
    -0.00732     -0.35866   64201.00000
    -0.00732     -0.32473   64302.00000
    -0.00732     -0.29755   64401.00000
    -0.00732     -0.27564   64501.00000
    -0.00732     -0.23847   64602.00000
    -0.00732     -0.22377   64701.00000
     6.49170    -14.63592   65489.00000
     6.49170    -14.96864   65591.00000
     6.49170    -14.93128   65690.00000
     6.49170    -14.82781   65791.00000
     6.49170    -14.74944   65890.00000
     6.49170    -14.68806   65990.00000
     6.49170    -14.63438   66091.00000
     6.49170    -14.54955   66190.00000
     6.49170    -14.51478   66290.00000
     6.49170    -14.48337   66391.00000
    -6.49170     15.55811   68079.00000
    -6.49170     16.42940   68181.00000
    -6.49170     16.60392   68280.00000
    -6.49170     16.39410   68380.00000
    -6.49170     16.31213   68481.00000
    -6.49170     16.24503   68580.00000
    -6.49170     16.18705   68680.00000
    -6.49170     16.13524   68781.00000
    -6.49170     16.09077   68880.00000
    -6.49170     16.04968   68980.00000
    -0.00732      0.40123   70002.00000
    -0.00732     -0.32357   70104.00000
    -0.00732     -0.51235   70203.00000
    -0.00732     -0.41658   70303.00000
    -0.00732     -0.37368   70404.00000
    -0.00732     -0.34029   70503.00000
    -0.00732     -0.31225   70603.00000
    -0.00732     -0.28904   70704.00000
    -0.00732     -0.27040   70803.00000
    -0.00732     -0.25260   70903.00000
     6.99219    -14.72699   71692.00000
     6.99219    -16.17323   71793.00000
     6.99219    -16.11439   71894.00000
     6.99219    -16.00171   71993.00000
     6.99219    -15.91858   72093.00000
     6.99219    -15.85172   72194.00000
     6.99219    -15.79399   72293.00000
     6.99219    -15.74466   72393.00000
     6.99219    -15.66485   72494.00000
     6.99219    -15.62903   72593.00000
    -6.99463     16.23943   74326.00000
    -6.99463     18.01783   74427.00000
    -6.99463     17.96504   74527.00000
    -6.99463     17.83420   74628.00000
    -6.99463     17.73900   74727.00000
    -6.99463     17.66009   74827.00000
    -6.99463     17.59366   74928.00000
    -6.99463     17.53531   75027.00000
    -6.99463     17.43748   75127.00000
    -6.99463     17.39569   75228.00000
    -0.00732     -0.05163   76286.00000
    -0.00732     -0.48385   76387.00000
    -0.00732     -0.53531   76487.00000
    -0.00732     -0.47731   76588.00000
    -0.00732     -0.42607   76687.00000
    -0.00732     -0.35329   76787.00000
    -0.00732     -0.32740   76888.00000
    -0.00732     -0.30498   76987.00000
    -0.00732     -0.28596   77087.00000
    -0.00732     -0.26986   77188.00000
     7.49512    -16.02160   78001.00000
     7.49512    -17.38425   78101.00000
     7.49512    -17.30898   78201.00000
     7.49512    -17.18982   78302.00000
     7.49512    -17.10043   78401.00000
     7.49512    -17.02854   78501.00000
     7.49512    -16.96786   78602.00000
     7.49512    -16.91488   78701.00000
     7.49512    -16.82714   78801.00000
     7.49512    -16.79021   78902.00000
    -7.49512     18.57302   80676.00000
    -7.49512     19.39572   80778.00000
    -7.49512     19.50151   80877.00000
    -7.49512     19.36065   80977.00000
    -7.49512     19.24068   81078.00000
    -7.49512     19.07332   81177.00000
    -7.49512     19.00781   81278.00000
    -7.49512     18.94964   81377.00000
    -7.49512     18.89731   81477.00000
    -7.49512     18.84982   81578.00000
    -0.00732      0.53579   82654.00000
    -0.00732     -0.55560   82755.00000
    -0.00732     -0.54485   82856.00000
    -0.00732     -0.48250   82955.00000
    -0.00732     -0.43285   83055.00000
    -0.00732     -0.39543   83156.00000
    -0.00732     -0.36390   83255.00000
    -0.00732     -0.33840   83355.00000
    -0.00732     -0.29636   83456.00000
    -0.00732     -0.28067   83555.00000
     7.99072    -17.38973   84386.00000
     7.99072    -18.36088   84488.00000
     7.99072    -18.47794   84587.00000
     7.99072    -18.35199   84687.00000
     7.99072    -18.25714   84788.00000
     7.99072    -18.18009   84887.00000
     7.99072    -18.11572   84987.00000
     7.99072    -18.06001   85087.00000
     7.99072    -18.01065   85187.00000
     7.99072    -17.92507   85288.00000
    -7.99316     19.62940   87099.00000
    -7.99316     20.80000   87199.00000
    -7.99316     21.08666   87300.00000
    -7.99316     20.82223   87399.00000
    -7.99316     20.71604   87499.00000
    -7.99316     20.62859   87600.00000
    -7.99316     20.55554   87699.00000
    -7.99316     20.49119   87799.00000
    -7.99316     20.43400   87900.00000
    -7.99316     20.38216   87999.00000
    -0.00732      0.00875   89094.00000
    -0.00732     -0.50230   89195.00000
    -0.00732     -0.59626   89295.00000
    -0.00732     -0.53885   89396.00000
    -0.00732     -0.43844   89495.00000
    -0.00732     -0.40156   89595.00000
    -0.00732     -0.37187   89696.00000
    -0.00732     -0.34604   89795.00000
    -0.00732     -0.32492   89896.00000
    -0.00732     -0.30544   89995.00000
     8.49121    -19.02578   90845.00000
     8.49121    -19.69906   90945.00000
     8.49121    -19.74958   91045.00000
     8.49121    -19.60016   91146.00000
     8.49121    -19.38063   91245.00000
     8.49121    -19.30352   91345.00000
     8.49121    -19.23707   91446.00000
     8.49121    -19.17779   91545.00000
     8.49121    -19.12633   91646.00000
     8.49121    -19.07924   91745.00000
    -8.49365     21.04765   93593.00000
    -8.49365     22.39472   93695.00000
    -8.49365     22.65042   93794.00000
    -8.49365     22.49057   93894.00000
    -8.49365     22.37467   93995.00000
    -8.49365     22.27815   94094.00000
    -8.49365     22.19599   94194.00000
    -8.49365     22.12583   94295.00000
    -8.49365     22.06362   94394.00000
    -8.49365     21.95710   94494.00000
    -0.00732      0.25035   95607.00000
    -0.00732     -0.43587   95708.00000
    -0.00732     -0.58951   95808.00000
    -0.00732     -0.52278   95908.00000
    -0.00732     -0.47272   96009.00000
    -0.00732     -0.43347   96108.00000
    -0.00732     -0.40145   96208.00000
    -0.00732     -0.37422   96309.00000
    -0.00732     -0.35037   96408.00000
    -0.00732     -0.31222   96509.00000
     8.98926    -20.60775   97393.00000
     8.98926    -20.94012   97495.00000
     8.98926    -20.85548   97594.00000
     8.98926    -20.69571   97694.00000
     8.98926    -20.57589   97795.00000
     8.98926    -20.48034   97894.00000
     8.98926    -20.33130   97994.00000
     8.98926    -20.27105   98095.00000
     8.98926    -20.21724   98194.00000
     8.98926    -20.16850   98294.00000
    -8.99414     24.08566  100186.00000
    -8.99414     24.54649  100287.00000
    -8.99414     24.46318  100387.00000
    -8.99414     24.28304  100488.00000
    -8.99414     24.15226  100587.00000
    -8.99414     24.04706  100687.00000
    -8.99414     23.95818  100788.00000
    -8.99414     23.81332  100887.00000
    -8.99414     23.75356  100987.00000
    -8.99414     23.69972  101088.00000
    -0.00732     -0.22750  102243.00000
    -0.00732     -0.60158  102344.00000
    -0.00732     -0.64554  102445.00000
    -0.00732     -0.58551  102544.00000
    -0.00732     -0.47934  102644.00000
    -0.00732     -0.44335  102745.00000
    -0.00732     -0.41177  102844.00000
    -0.00732     -0.38489  102944.00000
    -0.00732     -0.36263  103045.00000
    -0.00732     -0.34232  103144.00000
     9.49219    -20.84084  104017.00000
     9.49219    -21.88668  104118.00000
     9.49219    -21.96870  104218.00000
     9.49219    -21.79750  104319.00000
     9.49219    -21.67172  104418.00000
     9.49219    -21.57044  104518.00000
     9.49219    -21.48526  104619.00000
     9.49219    -21.41245  104718.00000
     9.49219    -21.34659  104818.00000
     9.49219    -21.23653  104919.00000
    -9.49219     24.19997  106827.00000
    -9.49219     25.94640  106929.00000
    -9.49219     26.39566  107028.00000
    -9.49219     26.19950  107128.00000
    -9.49219     26.05916  107229.00000
    -9.49219     25.94432  107328.00000
    -9.49219     25.84787  107428.00000
    -9.49219     25.76634  107529.00000
    -9.49219     25.69343  107628.00000
    -9.49219     25.56700  107728.00000
    -0.00732     -0.30871  108878.00000
    -0.00732     -0.65640  108980.00000
    -0.00732     -0.67115  109079.00000
    -0.00732     -0.59886  109179.00000
    -0.00732     -0.53883  109280.00000
    -0.00732     -0.49344  109379.00000
    -0.00732     -0.42507  109480.00000
    -0.00732     -0.39816  109579.00000
    -0.00732     -0.37576  109679.00000
    -0.00732     -0.35431  109780.00000
     9.99268    -22.12722  110689.00000
     9.99268    -23.07446  110790.00000
     9.99268    -23.10134  110891.00000
     9.99268    -22.91837  110990.00000
     9.99268    -22.78291  111090.00000
     9.99268    -22.67485  111191.00000
     9.99268    -22.58248  111290.00000
     9.99268    -22.50355  111390.00000
     9.99268    -22.43369  111491.00000
     9.99268    -22.31377  111590.00000
    -9.99512     26.66039  113573.00000
    -9.99512     28.18206  113674.00000
    -9.99512     28.41971  113773.00000
    -9.99512     28.21950  113873.00000
    -9.99512     28.07691  113974.00000
    -9.99512     27.95977  114073.00000
    -9.99512     27.85946  114174.00000
    -9.99512     27.77175  114273.00000
    -9.99512     27.69362  114373.00000
    -9.99512     27.56130  114474.00000
    -0.00732     -0.23474  115659.00000
    -0.00732     -0.64783  115760.00000
    -0.00732     -0.70619  115859.00000
    -0.00732     -0.64035  115959.00000
    -0.00732     -0.52618  116060.00000
    -0.00732     -0.48563  116159.00000
    -0.00732     -0.45259  116259.00000
    -0.00732     -0.42547  116360.00000
    -0.00732     -0.40118  116459.00000
    -0.00732     -0.37868  116559.00000
    10.49072    -23.82417  117501.00000
    10.49072    -24.42815  117602.00000
    10.49072    -24.43455  117702.00000
    10.49072    -24.05893  117803.00000
    10.49072    -23.92744  117902.00000
    10.49072    -23.81879  118002.00000
    10.49072    -23.72545  118103.00000
    10.49072    -23.64546  118202.00000
    10.49072    -23.57498  118302.00000
    10.49072    -23.51176  118403.00000
   -10.49072     29.19694  120403.00000
   -10.49072     30.52291  120504.00000
   -10.49072     30.78571  120604.00000
   -10.49072     30.39161  120705.00000
   -10.49072     30.24262  120804.00000
   -10.49072     30.12103  120904.00000
   -10.49072     30.01561  121005.00000
   -10.49072     29.92365  121104.00000
   -10.49072     29.84155  121204.00000
   -10.49072     29.76745  121305.00000
    -0.00488     -0.20864  122478.00000
    -0.00488     -0.67650  122580.00000
    -0.00488     -0.74947  122679.00000
    -0.00488     -0.67723  122779.00000
    -0.00488     -0.60742  122880.00000
    -0.00488     -0.51327  122979.00000
    -0.00488     -0.47799  123079.00000
    -0.00488     -0.44949  123180.00000
    -0.00488     -0.42309  123279.00000
    -0.00488     -0.40072  123379.00000
    10.98877    -25.14008  124326.00000
    10.98877    -25.82060  124427.00000
    10.98877    -25.82079  124526.00000
    10.98877    -25.59891  124627.00000
    10.98877    -25.41818  124726.00000
    10.98877    -25.16621  124826.00000
    10.98877    -25.06895  124927.00000
    10.98877    -24.98456  125026.00000
    10.98877    -24.91005  125126.00000
    10.98877    -24.84254  125227.00000
   -10.99121     32.47663  127269.00000
   -10.99121     33.20045  127370.00000
   -10.99121     33.10063  127469.00000
   -10.99121     32.85133  127569.00000
   -10.99121     32.67203  127670.00000
   -10.99121     32.52772  127769.00000
   -10.99121     32.40758  127870.00000
   -10.99121     32.20748  127969.00000
   -10.99121     32.12368  128069.00000
   -10.99121     32.04749  128170.00000
    -0.00732     -0.51057  129380.00000
    -0.00732     -0.76133  129480.00000
    -0.00732     -0.74547  129582.00000
    -0.00732     -0.66839  129681.00000
    -0.00732     -0.60612  129781.00000
    -0.00732     -0.55703  129882.00000
    -0.00732     -0.51665  129981.00000
    -0.00732     -0.45489  130081.00000
    -0.00732     -0.42982  130181.00000
    -0.00732     -0.40888  130281.00000
    10.99121    -25.18304  131228.00000
    10.99121    -25.67556  131330.00000
    10.99121    -25.58967  131429.00000
    10.99121    -25.37131  131529.00000
    10.99121    -25.20552  131630.00000
    10.99121    -25.07603  131729.00000
    10.99121    -24.87636  131829.00000
    10.99121    -24.79747  131930.00000
    10.99121    -24.72710  132029.00000
    10.99121    -24.66256  132129.00000
   -10.99121     30.78520  134173.00000
   -10.99121     32.59329  134274.00000
   -10.99121     32.89494  134373.00000
   -10.99121     32.66528  134473.00000
   -10.99121     32.49727  134574.00000
   -10.99121     32.35885  134673.00000
   -10.99121     32.24330  134773.00000
   -10.99121     32.14337  134874.00000
   -10.99121     32.05352  134973.00000
   -10.99121     31.90128  135073.00000
    -0.00488      0.00178  136285.00000
    -0.00488     -0.78866  136385.00000
    -0.00488     -0.74587  136485.00000
    -0.00488     -0.66909  136586.00000
    -0.00488     -0.60966  136685.00000
    -0.00488     -0.56395  136785.00000
    -0.00488     -0.52659  136885.00000
    -0.00488     -0.49387  136985.00000
    -0.00488     -0.44095  137086.00000
    -0.00488     -0.41893  137185.00000
    10.49072    -22.92072  138126.00000
    10.49072    -23.96627  138227.00000
    10.49072    -23.80415  138328.00000
    10.49072    -23.61715  138427.00000
    10.49072    -23.47705  138527.00000
    10.49072    -23.36483  138628.00000
    10.49072    -23.27173  138727.00000
    10.49072    -23.19198  138827.00000
    10.49072    -23.05718  138928.00000
    10.49072    -23.00044  139027.00000
   -10.49072     29.81721  141029.00000
   -10.49072     30.39275  141129.00000
   -10.49072     30.29803  141230.00000
   -10.49072     30.07934  141329.00000
   -10.49072     29.92128  141429.00000
   -10.49072     29.79385  141530.00000
   -10.49072     29.68589  141629.00000
   -10.49072     29.51040  141729.00000
   -10.49072     29.43689  141830.00000
   -10.49072     29.36992  141929.00000
    -0.00732      0.04751  143105.00000
    -0.00732     -0.60531  143205.00000
    -0.00732     -0.73725  143305.00000
    -0.00732     -0.66137  143406.00000
    -0.00732     -0.60431  143505.00000
    -0.00732     -0.55812  143605.00000
    -0.00732     -0.51973  143706.00000
    -0.00732     -0.48834  143805.00000
    -0.00732     -0.45973  143905.00000
    -0.00732     -0.41356  144006.00000
     9.99512    -22.01133  144916.00000
     9.99512    -22.53775  145016.00000
     9.99512    -22.51349  145117.00000
     9.99512    -22.31868  145216.00000
     9.99512    -22.16196  145316.00000
     9.99512    -21.94300  145417.00000
     9.99512    -21.86037  145516.00000
     9.99512    -21.78783  145616.00000
     9.99512    -21.72453  145717.00000
     9.99512    -21.66761  145816.00000
    -9.99512     26.99641  147800.00000
    -9.99512     27.93900  147900.00000
    -9.99512     28.00694  148000.00000
    -9.99512     27.79676  148101.00000
    -9.99512     27.63235  148200.00000
    -9.99512     27.40034  148300.00000
    -9.99512     27.30808  148401.00000
    -9.99512     27.22876  148500.00000
    -9.99512     27.15736  148600.00000
    -9.99512     27.09436  148701.00000
    -0.00732     -0.53969  149887.00000
    -0.00732     -0.75403  149987.00000
    -0.00732     -0.73012  150087.00000
    -0.00732     -0.65810  150188.00000
    -0.00732     -0.59950  150287.00000
    -0.00732     -0.55323  150387.00000
    -0.00732     -0.51451  150488.00000
    -0.00732     -0.45540  150587.00000
    -0.00732     -0.43077  150687.00000
    -0.00732     -0.40991  150788.00000
     9.49219    -20.62247  151667.00000
     9.49219    -21.28032  151769.00000
     9.49219    -21.29785  151868.00000
     9.49219    -21.10629  151968.00000
     9.49219    -20.83670  152069.00000
     9.49219    -20.74266  152168.00000
     9.49219    -20.66326  152268.00000
     9.49219    -20.59481  152369.00000
     9.49219    -20.53569  152468.00000
     9.49219    -20.48199  152568.00000
    -9.49463     24.37324  154478.00000
    -9.49463     25.64796  154579.00000
    -9.49463     25.89291  154678.00000
    -9.49463     25.70440  154779.00000
    -9.49463     25.40804  154879.00000
    -9.49463     25.30627  154978.00000
    -9.49463     25.21955  155078.00000
    -9.49463     25.14302  155179.00000
    -9.49463     25.07540  155279.00000
    -9.49463     25.01464  155378.00000
    -0.00732      0.16111  156528.00000
    -0.00732     -0.74539  156630.00000
    -0.00732     -0.70924  156729.00000
    -0.00732     -0.63722  156829.00000
    -0.00732     -0.57989  156930.00000
    -0.00732     -0.53510  157029.00000
    -0.00732     -0.49795  157129.00000
    -0.00732     -0.46640  157230.00000
    -0.00732     -0.41791  157329.00000
    -0.00732     -0.39743  157429.00000
     8.99170    -19.74274  158315.00000
     8.99170    -20.12603  158416.00000
     8.99170    -20.06195  158517.00000
     8.99170    -19.89416  158616.00000
     8.99170    -19.76776  158717.00000
     8.99170    -19.58730  158816.00000
     8.99170    -19.51846  158916.00000
     8.99170    -19.45754  159017.00000
     8.99170    -19.40305  159116.00000
     8.99170    -19.35488  159216.00000
    -8.99170     23.29511  161109.00000
    -8.99170     23.85960  161209.00000
    -8.99170     23.81800  161309.00000
    -8.99170     23.63729  161410.00000
    -8.99170     23.50648  161509.00000
    -8.99170     23.40269  161609.00000
    -8.99170     23.24124  161710.00000
    -8.99170     23.17735  161809.00000
    -8.99170     23.11703  161909.00000
    -8.99170     23.06248  162010.00000
    -0.00732     -0.24901  163159.00000
    -0.00732     -0.65805  163259.00000
    -0.00732     -0.71659  163359.00000
    -0.00732     -0.65329  163460.00000
    -0.00732     -0.54237  163559.00000
    -0.00732     -0.50368  163659.00000
    -0.00732     -0.47069  163760.00000
    -0.00732     -0.44357  163859.00000
    -0.00732     -0.41891  163959.00000
    -0.00732     -0.39635  164060.00000
     8.49121    -18.18388  164909.00000
     8.49121    -18.88744  165010.00000
     8.49121    -18.95940  165110.00000
     8.49121    -18.80639  165211.00000
     8.49121    -18.57776  165310.00000
     8.49121    -18.49779  165410.00000
     8.49121    -18.42928  165511.00000
     8.49121    -18.37020  165610.00000
     8.49121    -18.31847  165710.00000
     8.49121    -18.27170  165811.00000
    -8.49365     20.19146  167659.00000
    -8.49365     22.07124  167759.00000
    -8.49365     21.97976  167860.00000
    -8.49365     21.81629  167959.00000
    -8.49365     21.69856  168059.00000
    -8.49365     21.60420  168159.00000
    -8.49365     21.52426  168259.00000
    -8.49365     21.45558  168360.00000
    -8.49365     21.34106  168459.00000
    -8.49365     21.29257  168559.00000
    -0.00488      0.20717  169672.00000
    -0.00488     -0.69924  169774.00000
    -0.00488     -0.66539  169873.00000
    -0.00488     -0.59486  169973.00000
    -0.00488     -0.54088  170074.00000
    -0.00488     -0.50033  170173.00000
    -0.00488     -0.46680  170273.00000
    -0.00488     -0.43725  170374.00000
    -0.00488     -0.38962  170473.00000
    -0.00488     -0.37076  170573.00000
     7.99316    -16.86388  171399.00000
     7.99316    -17.67266  171499.00000
     7.99316    -17.81250  171599.00000
     7.99316    -17.56039  171700.00000
     7.99316    -17.46705  171799.00000
     7.99316    -17.39054  171899.00000
     7.99316    -17.32630  172000.00000
     7.99316    -17.27154  172099.00000
     7.99316    -17.22213  172200.00000
     7.99316    -17.17850  172299.00000
    -7.99316     19.25872  174111.00000
    -7.99316     20.21980  174212.00000
    -7.99316     20.38526  174311.00000
    -7.99316     20.23925  174411.00000
    -7.99316     20.00618  174512.00000
    -7.99316     19.92579  174611.00000
    -7.99316     19.85619  174711.00000
    -7.99316     19.79544  174812.00000
    -7.99316     19.74100  174911.00000
    -7.99316     19.69305  175011.00000
    -0.00732     -0.23439  176107.00000
    -0.00732     -0.62892  176208.00000
    -0.00732     -0.66866  176309.00000
    -0.00732     -0.60283  176408.00000
    -0.00732     -0.54480  176509.00000
    -0.00732     -0.49946  176608.00000
    -0.00732     -0.43247  176708.00000
    -0.00732     -0.40697  176809.00000
    -0.00732     -0.38489  176908.00000
    -0.00732     -0.36623  177008.00000
     7.49512    -15.44187  177821.00000
     7.49512    -16.40826  177922.00000
     7.49512    -16.56517  178021.00000
     7.49512    -16.44428  178121.00000
     7.49512    -16.35296  178222.00000
     7.49512    -16.28029  178321.00000
     7.49512    -16.21916  178421.00000
     7.49512    -16.16602  178522.00000
     7.49512    -16.11961  178621.00000
     7.49512    -16.04234  178721.00000
    -7.49268     17.89005  180503.00000
    -7.49268     18.70585  180603.00000
    -7.49268     18.81540  180704.00000
    -7.49268     18.67454  180803.00000
    -7.49268     18.46526  180904.00000
    -7.49268     18.38967  181003.00000
    -7.49268     18.32556  181103.00000
    -7.49268     18.26991  181204.00000
    -7.49268     18.22031  181303.00000
    -7.49268     18.17535  181403.00000
    -0.00488      0.40255  182480.00000
    -0.00488     -0.64046  182581.00000
    -0.00488     -0.62619  182680.00000
    -0.00488     -0.56063  182781.00000
    -0.00488     -0.50795  182880.00000
    -0.00488     -0.46718  182980.00000
    -0.00488     -0.43444  183081.00000
    -0.00488     -0.40783  183180.00000
    -0.00488     -0.36379  183280.00000
    -0.00488     -0.34561  183381.00000
     6.99219    -14.89735  184168.00000
     6.99219    -15.44319  184269.00000
     6.99219    -15.46308  184370.00000
     6.99219    -15.34278  184469.00000
     6.99219    -15.24596  184569.00000
     6.99219    -15.17242  184670.00000
     6.99219    -15.05971  184769.00000
     6.99219    -15.01392  184869.00000
     6.99219    -14.97475  184970.00000
     6.99219    -14.93990  185069.00000
    -6.99463     16.56832  186803.00000
    -6.99463     17.27923  186903.00000
    -6.99463     17.34409  187003.00000
    -6.99463     17.20985  187104.00000
    -6.99463     17.10128  187204.00000
    -6.99463     16.95110  187304.00000
    -6.99463     16.89134  187403.00000
    -6.99463     16.83893  187503.00000
    -6.99463     16.79376  187604.00000
    -6.99463     16.75278  187703.00000
    -0.00732      0.10824  188762.00000
    -0.00732     -0.48858  188862.00000
    -0.00732     -0.62417  188962.00000
    -0.00732     -0.51549  189063.00000
    -0.00732     -0.47234  189162.00000
    -0.00732     -0.43555  189262.00000
    -0.00732     -0.40461  189363.00000
    -0.00732     -0.38000  189462.00000
    -0.00732     -0.35907  189562.00000
    -0.00732     -0.34097  189663.00000
     6.49170    -13.23337  190445.00000
     6.49170    -14.33538  190545.00000
     6.49170    -14.26138  190646.00000
     6.49170    -14.15837  190745.00000
     6.49170    -14.08138  190846.00000
     6.49170    -14.02065  190945.00000
     6.49170    -13.96802  191045.00000
     6.49170    -13.92161  191146.00000
     6.49170    -13.84902  191245.00000
     6.49170    -13.81701  191345.00000
    -6.49414     15.31935  193035.00000
    -6.49414     15.90847  193136.00000
    -6.49414     15.94753  193237.00000
    -6.49414     15.82472  193336.00000
    -6.49414     15.65239  193436.00000
    -6.49414     15.58820  193537.00000
    -6.49414     15.53369  193636.00000
    -6.49414     15.48622  193736.00000
    -6.49414     15.44464  193837.00000
    -6.49414     15.40720  193936.00000
    -0.00488      0.02863  194958.00000
    -0.00488     -0.50468  195059.00000
    -0.00488     -0.59718  195160.00000
    -0.00488     -0.53964  195259.00000
    -0.00488     -0.48331  195359.00000
    -0.00488     -0.40680  195460.00000
    -0.00488     -0.38038  195559.00000
    -0.00488     -0.35796  195659.00000
    -0.00488     -0.33759  195760.00000
    -0.00488     -0.31892  195859.00000
     5.99121    -12.66785  196612.00000
     5.99121    -13.16334  196712.00000
     5.99121    -13.18217  196812.00000
     5.99121    -13.08049  196913.00000
     5.99121    -12.99998  197012.00000
     5.99121    -12.93760  197112.00000
     5.99121    -12.84108  197213.00000
     5.99121    -12.80190  197312.00000
     5.99121    -12.76857  197412.00000
     5.99121    -12.73788  197513.00000
    -5.99121     13.94840  199159.00000
    -5.99121     14.56729  199260.00000
    -5.99121     14.62194  199359.00000
    -5.99121     14.50807  199459.00000
    -5.99121     14.41787  199560.00000
    -5.99121     14.28706  199659.00000
    -5.99121     14.23746  199759.00000
    -5.99121     14.19399  199860.00000
    -5.99121     14.15355  199959.00000
    -5.99121     14.11754  200059.00000
    -0.00488     -0.17763  201076.00000
    -0.00488     -0.52864  201177.00000
    -0.00488     -0.55263  201276.00000
    -0.00488     -0.49287  201376.00000
    -0.00488     -0.44400  201477.00000
    -0.00488     -0.40713  201576.00000
    -0.00488     -0.35099  201676.00000
    -0.00488     -0.33086  201777.00000
    -0.00488     -0.31274  201876.00000
    -0.00488     -0.29726  201976.00000
     5.49072    -10.98674  202698.00000
     5.49072    -11.88057  202800.00000
     5.49072    -12.03075  202899.00000
     5.49072    -11.94346  202999.00000
     5.49072    -11.87828  203100.00000
     5.49072    -11.82597  203199.00000
     5.49072    -11.78126  203299.00000
     5.49072    -11.74279  203400.00000
     5.49072    -11.70986  203499.00000
     5.49072    -11.67966  203599.00000
    -5.49316     12.70477  205192.00000
    -5.49316     13.29900  205293.00000
    -5.49316     13.33672  205393.00000
    -5.49316     13.22952  205494.00000
    -5.49316     13.14583  205593.00000
    -5.49316     13.07934  205694.00000
    -5.49316     12.98022  205793.00000
    -5.49316     12.93897  205893.00000
    -5.49316     12.90298  205994.00000
    -5.49316     12.86989  206093.00000
    -0.00488      0.33085  207073.00000
    -0.00488     -0.35820  207173.00000
    -0.00488     -0.53110  207274.00000
    -0.00488     -0.43660  207373.00000
    -0.00488     -0.39732  207473.00000
    -0.00488     -0.36536  207574.00000
    -0.00488     -0.33889  207673.00000
    -0.00488     -0.31698  207773.00000
    -0.00488     -0.29828  207874.00000
    -0.00488     -0.28199  207973.00000
     4.99268     -9.61485  208676.00000
     4.99268    -10.98231  208778.00000
     4.99268    -10.94476  208877.00000
     4.99268    -10.85864  208977.00000
     4.99268    -10.79515  209078.00000
     4.99268    -10.74425  209177.00000
     4.99268    -10.70252  209278.00000
     4.99268    -10.66691  209377.00000
     4.99268    -10.60753  209477.00000
     4.99268    -10.58143  209578.00000
    -4.99512     10.70072  211127.00000
    -4.99512     12.10979  211228.00000
    -4.99512     12.05748  211329.00000
    -4.99512     11.95934  211428.00000
    -4.99512     11.88972  211528.00000
    -4.99512     11.83415  211629.00000
    -4.99512     11.78836  211728.00000
    -4.99512     11.74878  211828.00000
    -4.99512     11.68135  211929.00000
    -4.99512     11.65247  212028.00000
    -0.00732     -0.08243  212977.00000
    -0.00732     -0.46048  213078.00000
    -0.00732     -0.48312  213177.00000
    -0.00732     -0.42636  213277.00000
    -0.00732     -0.38173  213378.00000
    -0.00732     -0.34896  213477.00000
    -0.00732     -0.32176  213577.00000
    -0.00732     -0.30012  213678.00000
    -0.00732     -0.26516  213777.00000
    -0.00732     -0.25230  213877.00000
     4.49219     -9.47515  214556.00000
     4.49219     -9.85269  214658.00000
     4.49219     -9.84332  214757.00000
     4.49219     -9.76341  214857.00000
     4.49219     -9.70257  214958.00000
     4.49219     -9.65597  215057.00000
     4.49219     -9.61596  215157.00000
     4.49219     -9.55174  215258.00000
     4.49219     -9.52589  215357.00000
     4.49219     -9.50309  215457.00000
    -4.49463     10.34701  216934.00000
    -4.49463     10.84228  217035.00000
    -4.49463     10.86068  217136.00000
    -4.49463     10.76683  217235.00000
    -4.49463     10.69748  217335.00000
    -4.49463     10.64348  217436.00000
    -4.49463     10.56078  217535.00000
    -4.49463     10.52601  217635.00000
    -4.49463     10.49478  217736.00000
    -4.49463     10.46761  217835.00000
    -0.00732      0.99411  218754.00000
    -0.00732     -0.42958  218855.00000
    -0.00732     -0.44495  218955.00000
    -0.00732     -0.39165  219056.00000
    -0.00732     -0.35026  219155.00000
    -0.00732     -0.31844  219255.00000
    -0.00732     -0.29342  219356.00000
    -0.00732     -0.27297  219455.00000
    -0.00732     -0.23982  219555.00000
    -0.00732     -0.22720  219656.00000
     3.99170     -7.77424  220291.00000
     3.99170     -8.59248  220392.00000
     3.99170     -8.76554  220492.00000
     3.99170     -8.70127  220593.00000
     3.99170     -8.58548  220692.00000
     3.99170     -8.54588  220792.00000
     3.99170     -8.51257  220893.00000
     3.99170     -8.48393  220992.00000
     3.99170     -8.45857  221092.00000
     3.99170     -8.43614  221193.00000
    -3.99170      7.93797  222608.00000
    -3.99170      9.65134  222709.00000
    -3.99170      9.63796  222810.00000
    -3.99170      9.55192  222909.00000
    -3.99170      9.49067  223009.00000
    -3.99170      9.44048  223110.00000
    -3.99170      9.40050  223209.00000
    -3.99170      9.36659  223309.00000
    -3.99170      9.30838  223410.00000
    -3.99170      9.28460  223509.00000
    -0.00732      0.38577  224397.00000
    -0.00732     -0.27678  224498.00000
    -0.00732     -0.41545  224599.00000
    -0.00732     -0.37211  224698.00000
    -0.00732     -0.32735  224798.00000
    -0.00732     -0.27102  224899.00000
    -0.00732     -0.25082  224998.00000
    -0.00732     -0.23347  225098.00000
    -0.00732     -0.21880  225199.00000
    -0.00732     -0.20640  225298.00000
     3.49121     -6.52829  225909.00000
     3.49121     -7.42145  226011.00000
     3.49121     -7.64454  226110.00000
     3.49121     -7.53132  226210.00000
     3.49121     -7.48612  226311.00000
     3.49121     -7.44919  226410.00000
     3.49121     -7.41847  226510.00000
     3.49121     -7.39241  226611.00000
     3.49121     -7.36871  226710.00000
     3.49121     -7.34780  226810.00000
    -3.49365      7.44337  228177.00000
    -3.49365      8.28476  228279.00000
    -3.49365      8.46117  228378.00000
    -3.49365      8.39050  228479.00000
    -3.49365      8.27447  228578.00000
    -3.49365      8.23476  228678.00000
    -3.49365      8.20158  228779.00000
    -3.49365      8.17271  228878.00000
    -3.49365      8.14582  228978.00000
    -3.49365      8.12367  229079.00000
    -0.00732      0.72949  229948.00000
    -0.00732     -0.12055  230048.00000
    -0.00732     -0.36350  230149.00000
    -0.00732     -0.29993  230248.00000
    -0.00732     -0.26740  230348.00000
    -0.00732     -0.24244  230449.00000
    -0.00732     -0.22415  230548.00000
    -0.00732     -0.20927  230648.00000
    -0.00732     -0.19498  230749.00000
    -0.00732     -0.18131  230848.00000
     2.99072     -5.39835  231424.00000
     2.99072     -6.30747  231525.00000
     2.99072     -6.53229  231625.00000
     2.99072     -6.48372  231726.00000
     2.99072     -6.38816  231825.00000
     2.99072     -6.35491  231925.00000
     2.99072     -6.32684  232026.00000
     2.99072     -6.30344  232125.00000
     2.99072     -6.28407  232225.00000
     2.99072     -6.26624  232326.00000
    -2.99316      6.02069  233618.00000
    -2.99316      7.00070  233719.00000
    -2.99316      7.25878  233820.00000
    -2.99316      7.14353  233919.00000
    -2.99316      7.09817  234019.00000
    -2.99316      7.06135  234120.00000
    -2.99316      7.03104  234219.00000
    -2.99316      7.00429  234319.00000
    -2.99316      6.98119  234420.00000
    -2.99316      6.96034  234519.00000
    -0.00732      0.52860  235353.00000
    -0.00732     -0.17188  235454.00000
    -0.00732     -0.32227  235554.00000
    -0.00732     -0.28850  235655.00000
    -0.00732     -0.25084  235754.00000
    -0.00732     -0.20149  235854.00000
    -0.00732     -0.18506  235955.00000
    -0.00732     -0.17050  236054.00000
    -0.00732     -0.15959  236154.00000
    -0.00732     -0.14983  236255.00000
     2.49268     -3.82986  236787.00000
     2.49268     -4.99360  236888.00000
     2.49268     -5.40059  236987.00000
     2.49268     -5.34656  237087.00000
     2.49268     -5.30768  237188.00000
     2.49268     -5.27681  237287.00000
     2.49268     -5.25203  237387.00000
     2.49268     -5.23126  237488.00000
     2.49268     -5.21310  237587.00000
     2.49268     -5.18063  237687.00000
    -2.49268      4.34830  238896.00000
    -2.49268      5.59133  238996.00000
    -2.49268      6.04711  239096.00000
    -2.49268      5.98241  239197.00000
    -2.49268      5.93859  239297.00000
    -2.49268      5.90539  239396.00000
    -2.49268      5.87805  239497.00000
    -2.49268      5.85392  239596.00000
    -2.49268      5.83288  239696.00000
    -2.49268      5.79768  239797.00000
    -0.00732      0.45145  240605.00000
    -0.00732     -0.15934  240705.00000
    -0.00732     -0.26794  240805.00000
    -0.00732     -0.23525  240906.00000
    -0.00732     -0.20381  241005.00000
    -0.00732     -0.16123  241105.00000
    -0.00732     -0.14573  241205.00000
    -0.00732     -0.13362  241305.00000
    -0.00732     -0.12357  241406.00000
    -0.00732     -0.11428  241505.00000
     1.99219     -3.38938  242008.00000
     1.99219     -4.15194  242108.00000
     1.99219     -4.31058  242208.00000
     1.99219     -4.26573  242309.00000
     1.99219     -4.22456  242408.00000
     1.99219     -4.17174  242508.00000
     1.99219     -4.15189  242609.00000
     1.99219     -4.13389  242708.00000
     1.99219     -4.11885  242808.00000
     1.99219     -4.10542  242909.00000
    -1.99463      3.58501  244049.00000
    -1.99463      4.59439  244151.00000
    -1.99463      4.89955  244250.00000
    -1.99463      4.82007  244351.00000
    -1.99463      4.78449  244450.00000
    -1.99463      4.75559  244550.00000
    -1.99463      4.73365  244651.00000
    -1.99463      4.71371  244750.00000
    -1.99463      4.69645  244850.00000
    -1.99463      4.68111  244951.00000
    -0.00732      1.04087  245709.00000
    -0.00732      0.07420  245811.00000
    -0.00732     -0.19670  245910.00000
    -0.00732     -0.15488  246010.00000
    -0.00732     -0.13319  246111.00000
    -0.00732     -0.11642  246210.00000
    -0.00732     -0.10280  246310.00000
    -0.00732     -0.09159  246411.00000
    -0.00732     -0.08143  246510.00000
    -0.00732     -0.07424  246611.00000
     1.49170     -2.53696  247068.00000
     1.49170     -3.12898  247169.00000
     1.49170     -3.21229  247269.00000
     1.49170     -3.16988  247369.00000
     1.49170     -3.13895  247470.00000
     1.49170     -3.11663  247569.00000
     1.49170     -3.09748  247669.00000
     1.49170     -3.06922  247770.00000
     1.49170     -3.05736  247869.00000
     1.49170     -3.04615  247969.00000
    -1.49414      2.78998  249019.00000
    -1.49414      3.58571  249120.00000
    -1.49414      3.76396  249221.00000
    -1.49414      3.72095  249320.00000
    -1.49414      3.68246  249420.00000
    -1.49414      3.63364  249521.00000
    -1.49414      3.61546  249620.00000
    -1.49414      3.60125  249720.00000
    -1.49414      3.58828  249821.00000
    -1.49414      3.57666  249920.00000
    -0.00732      1.60063  250632.00000
    -0.00732      0.35257  250732.00000
    -0.00732     -0.12711  250832.00000
    -0.00732     -0.09826  250933.00000
    -0.00732     -0.07649  251032.00000
    -0.00732     -0.06095  251133.00000
    -0.00732     -0.04907  251232.00000
    -0.00732     -0.04023  251332.00000
    -0.00732     -0.03232  251433.00000
    -0.00732     -0.02094  251532.00000
     0.99365     -0.85912  251936.00000
     0.99365     -1.77486  252038.00000
     0.99365     -2.12779  252137.00000
     0.99365     -2.09939  252237.00000
     0.99365     -2.07711  252338.00000
     0.99365     -2.06136  252437.00000
     0.99365     -2.04896  252537.00000
     0.99365     -2.03748  252638.00000
     0.99365     -2.02775  252737.00000
     0.99365     -2.01886  252837.00000
    -0.99121      1.27655  253784.00000
    -0.99121      2.21163  253885.00000
    -0.99121      2.63029  253985.00000
    -0.99121      2.59382  254086.00000
    -0.99121      2.56888  254185.00000
    -0.99121      2.55005  254285.00000
    -0.99121      2.53633  254386.00000
    -0.99121      2.52496  254485.00000
    -0.99121      2.51448  254585.00000
    -0.99121      2.49610  254686.00000
    -0.00732      1.40450  255347.00000
    -0.00732      0.34936  255449.00000
    -0.00732     -0.01684  255548.00000
    -0.00732     -0.00962  255648.00000
    -0.00732      0.00588  255749.00000
    -0.00732      0.01628  255848.00000
    -0.00732      0.02325  255948.00000
    -0.00732      0.02893  256049.00000
    -0.00732      0.03638  256148.00000
    -0.00732      0.04219  256248.00000
     0.49072     -0.09894  256585.00000
     0.49072     -0.64981  256687.00000
     0.49072     -1.03623  256786.00000
     0.49072     -1.04612  256886.00000
     0.49072     -1.03140  256987.00000
     0.49072     -1.01981  257086.00000
     0.49072     -1.01146  257186.00000
     0.49072     -1.00338  257287.00000
     0.49072     -0.99687  257386.00000
     0.49072     -0.99231  257486.00000
    -0.49316      0.68351  258305.00000
    -0.49316      1.27485  258405.00000
    -0.49316      1.50156  258505.00000
    -0.49316      1.48849  258606.00000
    -0.49316      1.46790  258705.00000
    -0.49316      1.44353  258805.00000
    -0.49316      1.43464  258906.00000
    -0.49316      1.42843  259005.00000
    -0.49316      1.42327  259105.00000
    -0.49316      1.41830  259206.00000
    -0.00732      1.09476  259806.00000
    -0.00732      0.42306  259906.00000
    -0.00732      0.10614  260006.00000
    -0.00732      0.09087  260107.00000
    -0.00732      0.11311  260206.00000
    -0.00732      0.11857  260307.00000
    -0.00732      0.12305  260406.00000
    -0.00732      0.12834  260506.00000
    -0.00732      0.13180  260607.00000
    -0.00732      0.13415  260706.00000