# Acquired on 04/09/2024 15:41:51 
# SPIDER: CNT0771454E-2_PostRodaggio_2024-09-04
# TRACKING MEASUREMENT

  # pos [mm]    force [N]     time [ms]
     0.49316     -0.12710     248.00000
     0.49316     -0.48735     349.00000
     0.49316     -0.64542     449.00000
     0.49316     -0.61257     549.00000
     0.49316     -0.59160     649.00000
     0.49316     -0.57537     750.00000
     0.49316     -0.56256     849.00000
     0.49316     -0.55300     949.00000
     0.49316     -0.54511    1050.00000
     0.49316     -0.53733    1149.00000
    -0.49316      0.56819    1961.00000
    -0.49316      0.89802    2061.00000
    -0.49316      0.98696    2162.00000
    -0.49316      0.95873    2261.00000
    -0.49316      0.93493    2361.00000
    -0.49316      0.91961    2462.00000
    -0.49316      0.89800    2561.00000
    -0.49316      0.88865    2661.00000
    -0.49316      0.88135    2762.00000
    -0.49316      0.87522    2861.00000
    -0.00732      0.60010    3451.00000
    -0.00732      0.18214    3551.00000
    -0.00732      0.03515    3652.00000
    -0.00732      0.04626    3751.00000
    -0.00732      0.06209    3851.00000
    -0.00732      0.07189    3952.00000
    -0.00732      0.08470    4051.00000
    -0.00732      0.08864    4151.00000
    -0.00732      0.09210    4252.00000
    -0.00732      0.09445    4351.00000
     0.99121     -0.82837    4755.00000
     0.99121     -1.09992    4857.00000
     0.99121     -1.08185    4956.00000
     0.99121     -1.02558    5057.00000
     0.99121     -0.99040    5156.00000
     0.99121     -0.96431    5256.00000
     0.99121     -0.94415    5357.00000
     0.99121     -0.91592    5456.00000
     0.99121     -0.90333    5556.00000
     0.99121     -0.89328    5657.00000
    -0.99365      1.34942    6602.00000
    -0.99365      1.64281    6703.00000
    -0.99365      1.65705    6803.00000
    -0.99365      1.61123    6904.00000
    -0.99365      1.57889    7003.00000
    -0.99365      1.55604    7104.00000
    -0.99365      1.53910    7203.00000
    -0.99365      1.51249    7303.00000
    -0.99365      1.50182    7404.00000
    -0.99365      1.49255    7503.00000
    -0.00732      1.01927    8165.00000
    -0.00732      0.02845    8266.00000
    -0.00732      0.01284    8365.00000
    -0.00732      0.04299    8465.00000
    -0.00732      0.06295    8566.00000
    -0.00732      0.07689    8665.00000
    -0.00732      0.08689    8765.00000
    -0.00732      0.09386    8866.00000
    -0.00732      0.10555    8965.00000
    -0.00732      0.11026    9065.00000
     1.49170     -1.13083    9525.00000
     1.49170     -1.45917    9626.00000
     1.49170     -1.47222    9725.00000
     1.49170     -1.40331    9825.00000
     1.49170     -1.35711    9926.00000
     1.49170     -1.30068   10025.00000
     1.49170     -1.28044   10125.00000
     1.49170     -1.26269   10226.00000
     1.49170     -1.24891   10325.00000
     1.49170     -1.23605   10425.00000
    -1.49414      1.72585   11476.00000
    -1.49414      2.15443   11576.00000
    -1.49414      2.24187   11677.00000
    -1.49414      2.14224   11776.00000
    -1.49414      2.10874   11876.00000
    -1.49414      2.08338   11977.00000
    -1.49414      2.06449   12076.00000
    -1.49414      2.04836   12176.00000
    -1.49414      2.03280   12277.00000
    -1.49414      2.02086   12376.00000
    -0.00732      0.26287   13100.00000
    -0.00732     -0.01491   13200.00000
    -0.00732     -0.02550   13301.00000
    -0.00732      0.01200   13400.00000
    -0.00732      0.03683   13500.00000
    -0.00732      0.05404   13601.00000
    -0.00732      0.06754   13700.00000
    -0.00732      0.08664   13799.00000
    -0.00732      0.09410   13901.00000
    -0.00732      0.10112   14000.00000
     1.99219     -1.68167   14502.00000
     1.99219     -1.85662   14603.00000
     1.99219     -1.81334   14704.00000
     1.99219     -1.74343   14803.00000
     1.99219     -1.69861   14903.00000
     1.99219     -1.66619   15004.00000
     1.99219     -1.63972   15103.00000
     1.99219     -1.60000   15203.00000
     1.99219     -1.58350   15304.00000
     1.99219     -1.57031   15403.00000
    -1.99463      2.44036   16545.00000
    -1.99463      2.73869   16645.00000
    -1.99463      2.74711   16745.00000
    -1.99463      2.67958   16846.00000
    -1.99463      2.63036   16945.00000
    -1.99463      2.56798   17046.00000
    -1.99463      2.54445   17145.00000
    -1.99463      2.52578   17245.00000
    -1.99463      2.51116   17346.00000
    -1.99463      2.49644   17445.00000
    -0.00732      0.25263   18211.00000
    -0.00732     -0.04652   18312.00000
    -0.00732     -0.07275   18413.00000
    -0.00732     -0.02933   18512.00000
    -0.00732      0.00327   18612.00000
    -0.00732      0.04139   18713.00000
    -0.00732      0.05336   18812.00000
    -0.00732      0.06346   18912.00000
    -0.00732      0.07222   19013.00000
    -0.00732      0.08038   19111.00000
     2.49512     -1.78168   19644.00000
     2.49512     -2.15520   19745.00000
     2.49512     -2.20988   19844.00000
     2.49512     -2.06826   19944.00000
     2.49512     -2.02706   20045.00000
     2.49512     -1.99438   20144.00000
     2.49512     -1.96866   20245.00000
     2.49512     -1.94715   20344.00000
     2.49512     -1.92770   20444.00000
     2.49512     -1.91014   20545.00000
    -2.49756      2.74847   21752.00000
    -2.49756      3.18014   21852.00000
    -2.49756      3.26027   21953.00000
    -2.49756      3.12587   22052.00000
    -2.49756      3.08232   22152.00000
    -2.49756      3.04809   22253.00000
    -2.49756      3.02089   22352.00000
    -2.49756      2.99885   22452.00000
    -2.49756      2.97815   22553.00000
    -2.49756      2.96100   22652.00000
    -0.00732      0.05074   23461.00000
    -0.00732     -0.11759   23562.00000
    -0.00732     -0.09774   23662.00000
    -0.00732     -0.05151   23762.00000
    -0.00732     -0.01993   23862.00000
    -0.00732      0.00219   23963.00000
    -0.00732      0.01819   24062.00000
    -0.00732      0.04434   24162.00000
    -0.00732      0.05368   24263.00000
    -0.00732      0.06217   24362.00000
     2.99072     -2.06651   24936.00000
     2.99072     -2.56637   25038.00000
     2.99072     -2.49111   25137.00000
     2.99072     -2.41644   25238.00000
     2.99072     -2.36846   25337.00000
     2.99072     -2.33299   25437.00000
     2.99072     -2.30376   25538.00000
     2.99072     -2.28039   25637.00000
     2.99072     -2.23973   25737.00000
     2.99072     -2.22406   25838.00000
    -2.99560      3.17426   27125.00000
    -2.99560      3.63549   27225.00000
    -2.99560      3.66739   27325.00000
    -2.99560      3.59432   27426.00000
    -2.99560      3.54409   27525.00000
    -2.99560      3.50541   27625.00000
    -2.99560      3.47448   27726.00000
    -2.99560      3.44833   27825.00000
    -2.99560      3.42574   27926.00000
    -2.99560      3.38935   28025.00000
    -0.00732      0.22213   28877.00000
    -0.00732     -0.10317   28978.00000
    -0.00732     -0.11154   29079.00000
    -0.00732     -0.06826   29178.00000
    -0.00732     -0.04022   29278.00000
    -0.00732     -0.01904   29379.00000
    -0.00732     -0.00124   29478.00000
    -0.00732      0.01273   29578.00000
    -0.00732      0.02399   29679.00000
    -0.00732      0.04426   29778.00000
     3.49121     -2.81626   30390.00000
     3.49121     -2.91949   30492.00000
     3.49121     -2.84663   30591.00000
     3.49121     -2.76642   30691.00000
     3.49121     -2.71414   30792.00000
     3.49121     -2.67495   30891.00000
     3.49121     -2.64328   30991.00000
     3.49121     -2.59528   31092.00000
     3.49121     -2.57558   31191.00000
     3.49121     -2.55770   31291.00000
    -3.49365      3.72191   32652.00000
    -3.49365      4.13063   32753.00000
    -3.49365      4.10847   32852.00000
    -3.49365      4.02872   32952.00000
    -3.49365      3.97345   33053.00000
    -3.49365      3.93312   33152.00000
    -3.49365      3.90000   33252.00000
    -3.49365      3.87176   33353.00000
    -3.49365      3.84656   33452.00000
    -3.49365      3.80514   33552.00000
    -0.00732      0.29788   34417.00000
    -0.00732     -0.20177   34517.00000
    -0.00732     -0.16049   34617.00000
    -0.00732     -0.10914   34718.00000
    -0.00732     -0.07464   34817.00000
    -0.00732     -0.04965   34917.00000
    -0.00732     -0.02968   35017.00000
    -0.00732     -0.01542   35117.00000
    -0.00732      0.00860   35217.00000
    -0.00732      0.01784   35318.00000
     3.98926     -3.04924   35953.00000
     3.98926     -3.27158   36054.00000
     3.98926     -3.24167   36154.00000
     3.98926     -3.14631   36255.00000
     3.98926     -3.08128   36354.00000
     3.98926     -2.99867   36454.00000
     3.98926     -2.97017   36555.00000
     3.98926     -2.94518   36654.00000
     3.98926     -2.92357   36754.00000
     3.98926     -2.90360   36855.00000
    -3.99658      4.23236   38258.00000
    -3.99658      4.59297   38359.00000
    -3.99658      4.61871   38459.00000
    -3.99658      4.43676   38560.00000
    -3.99658      4.38025   38659.00000
    -3.99658      4.33651   38759.00000
    -3.99658      4.29936   38860.00000
    -3.99658      4.26821   38959.00000
    -3.99658      4.24260   39059.00000
    -3.99658      4.22021   39159.00000
    -0.00488     -0.09006   40065.00000
    -0.00488     -0.22960   40165.00000
    -0.00488     -0.20772   40266.00000
    -0.00488     -0.15163   40365.00000
    -0.00488     -0.11208   40465.00000
    -0.00488     -0.08385   40566.00000
    -0.00488     -0.04611   40665.00000
    -0.00488     -0.03112   40765.00000
    -0.00488     -0.01923   40866.00000
    -0.00488     -0.00948   40965.00000
     4.49219     -3.52423   41644.00000
     4.49219     -3.64939   41745.00000
     4.49219     -3.58501   41846.00000
     4.49219     -3.49357   41945.00000
     4.49219     -3.43183   42045.00000
     4.49219     -3.38780   42146.00000
     4.49219     -3.32061   42245.00000
     4.49219     -3.29568   42345.00000
     4.49219     -3.27244   42446.00000
     4.49219     -3.25194   42545.00000
    -4.49463      4.88770   44022.00000
    -4.49463      5.05639   44123.00000
    -4.49463      4.99612   44224.00000
    -4.49463      4.89216   44323.00000
    -4.49463      4.81846   44423.00000
    -4.49463      4.72213   44524.00000
    -4.49463      4.68647   44623.00000
    -4.49463      4.65629   44723.00000
    -4.49463      4.63006   44824.00000
    -4.49463      4.60682   44923.00000
    -0.00732     -0.14658   45854.00000
    -0.00732     -0.26258   45954.00000
    -0.00732     -0.22981   46054.00000
    -0.00732     -0.17265   46155.00000
    -0.00732     -0.13345   46254.00000
    -0.00732     -0.10498   46354.00000
    -0.00732     -0.06491   46455.00000
    -0.00732     -0.05143   46554.00000
    -0.00732     -0.03784   46654.00000
    -0.00732     -0.02631   46755.00000
     4.99268     -3.84147   47457.00000
     4.99268     -4.02968   47559.00000
     4.99268     -3.98268   47658.00000
     4.99268     -3.88272   47758.00000
     4.99268     -3.76053   47859.00000
     4.99268     -3.72152   47958.00000
     4.99268     -3.68851   48058.00000
     4.99268     -3.66025   48159.00000
     4.99268     -3.63626   48258.00000
     4.99268     -3.61435   48358.00000
    -4.99512      5.30190   49909.00000
    -4.99512      5.48758   50009.00000
    -4.99512      5.42407   50109.00000
    -4.99512      5.31295   50210.00000
    -4.99512      5.23455   50309.00000
    -4.99512      5.13238   50409.00000
    -4.99512      5.09548   50509.00000
    -4.99512      5.06339   50609.00000
    -4.99512      5.03569   50710.00000
    -4.99512      5.01135   50809.00000
    -0.00732     -0.09849   51758.00000
    -0.00732     -0.28014   51859.00000
    -0.00732     -0.27433   51960.00000
    -0.00732     -0.21080   52059.00000
    -0.00732     -0.16344   52160.00000
    -0.00732     -0.10738   52259.00000
    -0.00732     -0.08782   52359.00000
    -0.00732     -0.07172   52460.00000
    -0.00732     -0.05797   52559.00000
    -0.00732     -0.04662   52659.00000
     5.49316     -3.98732   53381.00000
     5.49316     -4.41557   53483.00000
     5.49316     -4.31664   53582.00000
     5.49316     -4.22441   53682.00000
     5.49316     -4.16276   53783.00000
     5.49316     -4.11543   53882.00000
     5.49316     -4.07769   53982.00000
     5.49316     -4.04603   54083.00000
     5.49316     -3.99311   54182.00000
     5.49316     -3.97160   54282.00000
    -5.49316      5.81128   55856.00000
    -5.49316      5.93709   55958.00000
    -5.49316      5.84448   56057.00000
    -5.49316      5.73204   56157.00000
    -5.49316      5.65580   56258.00000
    -5.49316      5.59929   56357.00000
    -5.49316      5.55406   56457.00000
    -5.49316      5.48337   56558.00000
    -5.49316      5.45443   56657.00000
    -5.49316      5.42688   56757.00000
    -0.00732     -0.13069   57725.00000
    -0.00732     -0.30546   57825.00000
    -0.00732     -0.29724   57926.00000
    -0.00732     -0.23295   58025.00000
    -0.00732     -0.18451   58125.00000
    -0.00732     -0.12548   58226.00000
    -0.00732     -0.10584   58325.00000
    -0.00732     -0.08917   58425.00000
    -0.00732     -0.07483   58526.00000
    -0.00732     -0.06186   58625.00000
     5.99365     -4.70755   59378.00000
     5.99365     -4.82807   59478.00000
     5.99365     -4.74683   59578.00000
     5.99365     -4.63904   59679.00000
     5.99365     -4.56802   59778.00000
     5.99365     -4.51664   59878.00000
     5.99365     -4.44029   59979.00000
     5.99365     -4.41044   60078.00000
     5.99365     -4.38334   60178.00000
     5.99365     -4.35930   60279.00000
    -5.99365      5.90135   61902.00000
    -5.99365      6.40818   62002.00000
    -5.99365      6.29882   62103.00000
    -5.99365      6.18947   62202.00000
    -5.99365      6.11455   62302.00000
    -5.99365      6.05804   62403.00000
    -5.99365      6.01135   62502.00000
    -5.99365      5.97196   62602.00000
    -5.99365      5.90910   62703.00000
    -5.99365      5.88211   62802.00000
    -0.00732     -0.12421   63800.00000
    -0.00732     -0.31775   63901.00000
    -0.00732     -0.32458   64000.00000
    -0.00732     -0.20974   64100.00000
    -0.00732     -0.17433   64201.00000
    -0.00732     -0.14728   64300.00000
    -0.00732     -0.12510   64400.00000
    -0.00732     -0.10714   64501.00000
    -0.00732     -0.09228   64600.00000
    -0.00732     -0.07866   64700.00000
     6.49170     -4.96285   65483.00000
     6.49170     -5.22787   65584.00000
     6.49170     -5.10052   65685.00000
     6.49170     -5.00788   65784.00000
     6.49170     -4.94524   65884.00000
     6.49170     -4.89704   65985.00000
     6.49170     -4.85773   66084.00000
     6.49170     -4.82364   66184.00000
     6.49170     -4.79360   66285.00000
     6.49170     -4.74556   66384.00000
    -6.49414      6.78761   68075.00000
    -6.49414      6.93228   68174.00000
    -6.49414      6.84745   68274.00000
    -6.49414      6.72599   68375.00000
    -6.49414      6.64143   68474.00000
    -6.49414      6.57808   68574.00000
    -6.49414      6.48337   68675.00000
    -6.49414      6.44635   68774.00000
    -6.49414      6.41442   68874.00000
    -6.49414      6.38568   68975.00000
    -0.00732     -0.26399   70008.00000
    -0.00732     -0.35414   70108.00000
    -0.00732     -0.31548   70209.00000
    -0.00732     -0.25234   70308.00000
    -0.00732     -0.20744   70408.00000
    -0.00732     -0.17541   70509.00000
    -0.00732     -0.13002   70608.00000
    -0.00732     -0.11305   70708.00000
    -0.00732     -0.09779   70809.00000
    -0.00732     -0.08523   70908.00000
     6.99463     -5.43081   71696.00000
     6.99463     -5.68289   71798.00000
     6.99463     -5.64601   71897.00000
     6.99463     -5.52112   71997.00000
     6.99463     -5.36670   72098.00000
     6.99463     -5.31713   72197.00000
     6.99463     -5.27766   72297.00000
     6.99463     -5.24259   72398.00000
     6.99463     -5.21266   72497.00000
     6.99463     -5.18567   72598.00000
    -6.99707      7.15756   74330.00000
    -6.99707      7.49285   74430.00000
    -6.99707      7.47178   74531.00000
    -6.99707      7.33376   74630.00000
    -6.99707      7.15459   74731.00000
    -6.99707      7.09578   74830.00000
    -6.99707      7.04831   74930.00000
    -6.99707      7.00760   75031.00000
    -6.99707      6.97237   75130.00000
    -6.99707      6.93941   75230.00000
    -0.00488     -0.16795   76271.00000
    -0.00488     -0.35554   76372.00000
    -0.00488     -0.36324   76472.00000
    -0.00488     -0.24078   76573.00000
    -0.00488     -0.20226   76672.00000
    -0.00488     -0.17333   76772.00000
    -0.00488     -0.15093   76873.00000
    -0.00488     -0.13204   76972.00000
    -0.00488     -0.11586   77072.00000
    -0.00488     -0.10187   77173.00000
     7.49268     -6.03503   77985.00000
     7.49268     -6.15882   78086.00000
     7.49268     -6.05819   78187.00000
     7.49268     -5.93681   78286.00000
     7.49268     -5.85638   78386.00000
     7.49268     -5.79649   78487.00000
     7.49268     -5.70750   78586.00000
     7.49268     -5.67230   78686.00000
     7.49268     -5.64212   78787.00000
     7.49268     -5.61540   78886.00000
    -7.49512      7.69522   80662.00000
    -7.49512      8.11204   80762.00000
    -7.49512      8.12847   80862.00000
    -7.49512      7.87090   80963.00000
    -7.49512      7.79040   81062.00000
    -7.49512      7.72807   81162.00000
    -7.49512      7.67590   81263.00000
    -7.49512      7.63087   81362.00000
    -7.49512      7.59118   81462.00000
    -7.49512      7.55833   81563.00000
    -0.00488     -0.33534   82626.00000
    -0.00488     -0.39015   82727.00000
    -0.00488     -0.33282   82827.00000
    -0.00488     -0.26834   82928.00000
    -0.00488     -0.22563   83027.00000
    -0.00488     -0.19448   83127.00000
    -0.00488     -0.16908   83228.00000
    -0.00488     -0.13156   83327.00000
    -0.00488     -0.11667   83427.00000
    -0.00488     -0.10362   83528.00000
     7.99072     -6.25089   84352.00000
     7.99072     -6.61227   84453.00000
     7.99072     -6.62356   84554.00000
     7.99072     -6.37472   84653.00000
     7.99072     -6.30043   84753.00000
     7.99072     -6.24351   84854.00000
     7.99072     -6.19656   84953.00000
     7.99072     -6.15655   85053.00000
     7.99072     -6.12235   85154.00000
     7.99072     -6.09228   85253.00000
    -7.99561      8.43131   87058.00000
    -7.99561      8.85785   87160.00000
    -7.99561      8.85323   87259.00000
    -7.99561      8.69752   87360.00000
    -7.99561      8.49541   87459.00000
    -7.99561      8.42882   87559.00000
    -7.99561      8.37503   87660.00000
    -7.99561      8.32959   87759.00000
    -7.99561      8.28858   87859.00000
    -7.99561      8.25184   87960.00000
    -0.00488     -0.32807   89073.00000
    -0.00488     -0.40177   89174.00000
    -0.00488     -0.36319   89274.00000
    -0.00488     -0.29822   89375.00000
    -0.00488     -0.21566   89474.00000
    -0.00488     -0.18851   89574.00000
    -0.00488     -0.16708   89675.00000
    -0.00488     -0.15042   89774.00000
    -0.00488     -0.13383   89874.00000
    -0.00488     -0.11946   89975.00000
     8.49121     -6.93308   90824.00000
     8.49121     -7.17222   90925.00000
     8.49121     -7.10387   91025.00000
     8.49121     -6.95645   91126.00000
     8.49121     -6.85816   91225.00000
     8.49121     -6.73195   91325.00000
     8.49121     -6.68457   91426.00000
     8.49121     -6.64542   91525.00000
     8.49121     -6.61095   91625.00000
     8.49121     -6.57939   91726.00000
    -8.49609      9.09678   93567.00000
    -8.49609      9.66466   93668.00000
    -8.49609      9.72175   93769.00000
    -8.49609      9.42682   93868.00000
    -8.49609      9.33297   93968.00000
    -8.49609      9.26011   94069.00000
    -8.49609      9.19960   94168.00000
    -8.49609      9.14675   94268.00000
    -8.49609      9.10204   94369.00000
    -8.49609      9.06341   94468.00000
    -0.00732     -0.29446   95570.00000
    -0.00732     -0.41781   95670.00000
    -0.00732     -0.39282   95771.00000
    -0.00732     -0.32194   95870.00000
    -0.00732     -0.26961   95969.00000
    -0.00732     -0.20388   96071.00000
    -0.00732     -0.18151   96170.00000
    -0.00732     -0.16271   96270.00000
    -0.00732     -0.14542   96371.00000
    -0.00732     -0.13078   96470.00000
     8.99170     -7.36270   97357.00000
     8.99170     -7.70855   97457.00000
     8.99170     -7.56407   97558.00000
     8.99170     -7.44480   97657.00000
     8.99170     -7.36373   97757.00000
     8.99170     -7.30173   97858.00000
     8.99170     -7.25073   97957.00000
     8.99170     -7.20699   98057.00000
     8.99170     -7.16927   98158.00000
     8.99170     -7.10541   98257.00000
    -8.99414     10.18312  100148.00000
    -8.99414     10.66413  100249.00000
    -8.99414     10.66242  100348.00000
    -8.99414     10.49323  100448.00000
    -8.99414     10.26106  100549.00000
    -8.99414     10.18485  100648.00000
    -8.99414     10.12206  100748.00000
    -8.99414     10.06846  100849.00000
    -8.99414     10.02197  100948.00000
    -8.99414      9.97942  101048.00000
    -0.00732     -0.27520  102186.00000
    -0.00732     -0.42262  102287.00000
    -0.00732     -0.35041  102388.00000
    -0.00732     -0.29181  102487.00000
    -0.00732     -0.25116  102587.00000
    -0.00732     -0.22125  102688.00000
    -0.00732     -0.19707  102787.00000
    -0.00732     -0.17589  102887.00000
    -0.00732     -0.15925  102988.00000
    -0.00732     -0.12975  103087.00000
     9.49219     -8.21641  103968.00000
     9.49219     -8.39315  104069.00000
     9.49219     -8.26394  104169.00000
     9.49219     -8.11030  104269.00000
     9.49219     -8.01186  104369.00000
     9.49219     -7.93773  104470.00000
     9.49219     -7.87921  104569.00000
     9.49219     -7.78633  104669.00000
     9.49219     -7.74900  104770.00000
     9.49219     -7.71496  104869.00000
    -9.49463     11.44057  106779.00000
    -9.49463     11.82846  106879.00000
    -9.49463     11.71494  106979.00000
    -9.49463     11.52548  107080.00000
    -9.49463     11.39700  107179.00000
    -9.49463     11.30099  107279.00000
    -9.49463     11.22291  107380.00000
    -9.49463     11.10115  107479.00000
    -9.49463     11.05069  107579.00000
    -9.49463     11.00730  107680.00000
    -0.00488     -0.35427  108847.00000
    -0.00488     -0.44467  108949.00000
    -0.00488     -0.41446  109048.00000
    -0.00488     -0.29287  109148.00000
    -0.00488     -0.25502  109249.00000
    -0.00488     -0.22552  109348.00000
    -0.00488     -0.20169  109448.00000
    -0.00488     -0.18194  109549.00000
    -0.00488     -0.16406  109648.00000
    -0.00488     -0.14896  109748.00000
     9.99268     -8.84779  110660.00000
     9.99268     -9.09174  110760.00000
     9.99268     -8.99589  110860.00000
     9.99268     -8.83139  110961.00000
     9.99268     -8.71966  111060.00000
     9.99268     -8.63775  111160.00000
     9.99268     -8.51831  111261.00000
     9.99268     -8.47187  111360.00000
     9.99268     -8.43211  111460.00000
     9.99268     -8.39564  111561.00000
    -9.99512     12.64932  113548.00000
    -9.99512     13.08251  113650.00000
    -9.99512     12.98345  113749.00000
    -9.99512     12.77589  113849.00000
    -9.99512     12.63227  113950.00000
    -9.99512     12.52556  114049.00000
    -9.99512     12.36852  114149.00000
    -9.99512     12.30628  114250.00000
    -9.99512     12.25220  114349.00000
    -9.99512     12.20322  114449.00000
    -0.00488     -0.31842  115612.00000
    -0.00488     -0.45617  115713.00000
    -0.00488     -0.44669  115813.00000
    -0.00488     -0.31267  115914.00000
    -0.00488     -0.27166  116013.00000
    -0.00488     -0.24043  116113.00000
    -0.00488     -0.21515  116214.00000
    -0.00488     -0.19467  116313.00000
    -0.00488     -0.17632  116413.00000
    -0.00488     -0.16087  116514.00000
    10.49316     -9.45266  117454.00000
    10.49316     -9.84598  117554.00000
    10.49316     -9.82394  117655.00000
    10.49316     -9.51078  117754.00000
    10.49316     -9.41814  117854.00000
    10.49316     -9.34493  117955.00000
    10.49316     -9.28458  118054.00000
    10.49316     -9.23389  118154.00000
    10.49316     -9.18900  118255.00000
    10.49316     -9.14774  118354.00000
   -10.49316     13.59170  120355.00000
   -10.49316     14.39313  120456.00000
   -10.49316     14.47261  120557.00000
   -10.49316     14.07438  120656.00000
   -10.49316     13.94414  120756.00000
   -10.49316     13.84210  120857.00000
   -10.49316     13.75795  120956.00000
   -10.49316     13.68576  121056.00000
   -10.49316     13.62206  121157.00000
   -10.49316     13.56538  121256.00000
    -0.00488     -0.39701  122443.00000
    -0.00488     -0.48130  122543.00000
    -0.00488     -0.44283  122643.00000
    -0.00488     -0.36986  122744.00000
    -0.00488     -0.27612  122843.00000
    -0.00488     -0.24659  122942.00000
    -0.00488     -0.22220  123043.00000
    -0.00488     -0.20139  123143.00000
    -0.00488     -0.18291  123244.00000
    -0.00488     -0.16703  123343.00000
    10.99365    -10.31670  124290.00000
    10.99365    -10.74735  124391.00000
    10.99365    -10.69875  124492.00000
    10.99365    -10.49556  124591.00000
    10.99365    -10.25767  124691.00000
    10.99365    -10.18151  124792.00000
    10.99365    -10.11692  124891.00000
    10.99365    -10.06240  124992.00000
    10.99365    -10.01459  125091.00000
    10.99365     -9.97233  125191.00000
   -10.99365     15.70127  127235.00000
   -10.99365     16.11566  127336.00000
   -10.99365     15.94757  127437.00000
   -10.99365     15.71070  127536.00000
   -10.99365     15.54674  127637.00000
   -10.99365     15.42218  127736.00000
   -10.99365     15.31925  127836.00000
   -10.99365     15.16088  127937.00000
   -10.99365     15.09332  128036.00000
   -10.99365     15.03418  128136.00000
    -0.00732     -0.31013  129329.00000
    -0.00732     -0.49057  129431.00000
    -0.00732     -0.42097  129530.00000
    -0.00732     -0.35500  129630.00000
    -0.00732     -0.30667  129731.00000
    -0.00732     -0.27131  129830.00000
    -0.00732     -0.24527  129930.00000
    -0.00732     -0.22222  130031.00000
    -0.00732     -0.18413  130130.00000
    -0.00732     -0.16989  130230.00000
    10.99365     -9.82929  131179.00000
    10.99365    -10.66601  131278.00000
    10.99365    -10.49397  131378.00000
    10.99365    -10.32569  131479.00000
    10.99365    -10.21777  131578.00000
    10.99365    -10.13526  131678.00000
    10.99365    -10.06716  131779.00000
    10.99365    -10.01059  131878.00000
    10.99365     -9.91925  131978.00000
    10.99365     -9.88132  132079.00000
   -10.99365     15.09264  134121.00000
   -10.99365     15.91040  134222.00000
   -10.99365     15.93420  134321.00000
   -10.99365     15.68841  134422.00000
   -10.99365     15.36914  134521.00000
   -10.99365     15.26295  134621.00000
   -10.99365     15.17393  134722.00000
   -10.99365     15.09713  134821.00000
   -10.99365     15.03051  134921.00000
   -10.99365     14.97186  135022.00000
    -0.00488     -0.43308  136215.00000
    -0.00488     -0.50613  136315.00000
    -0.00488     -0.45861  136415.00000
    -0.00488     -0.38305  136516.00000
    -0.00488     -0.32820  136615.00000
    -0.00488     -0.25923  136715.00000
    -0.00488     -0.23595  136816.00000
    -0.00488     -0.21541  136915.00000
    -0.00488     -0.19677  137015.00000
    -0.00488     -0.18116  137116.00000
    10.49316     -9.40939  138056.00000
    10.49316     -9.63650  138157.00000
    10.49316     -9.53466  138257.00000
    10.49316     -9.36592  138358.00000
    10.49316     -9.25283  138457.00000
    10.49316     -9.10484  138557.00000
    10.49316     -9.05073  138658.00000
    10.49316     -9.00516  138757.00000
    10.49316     -8.96469  138857.00000
    10.49316     -8.92816  138958.00000
   -10.49316     13.62377  140958.00000
   -10.49316     14.14649  141059.00000
   -10.49316     14.08689  141159.00000
   -10.49316     13.87163  141260.00000
   -10.49316     13.71605  141359.00000
   -10.49316     13.51076  141459.00000
   -10.49316     13.43422  141559.00000
   -10.49316     13.36928  141659.00000
   -10.49316     13.31263  141760.00000
   -10.49316     13.26249  141859.00000
    -0.00488     -0.46204  143046.00000
    -0.00488     -0.49602  143147.00000
    -0.00488     -0.43418  143247.00000
    -0.00488     -0.36484  143348.00000
    -0.00488     -0.31575  143447.00000
    -0.00488     -0.27966  143547.00000
    -0.00488     -0.25164  143648.00000
    -0.00488     -0.20699  143747.00000
    -0.00488     -0.19021  143847.00000
    -0.00488     -0.17722  143948.00000
     9.99512     -8.24157  144857.00000
     9.99512     -8.70723  144958.00000
     9.99512     -8.59282  145059.00000
     9.99512     -8.45761  145158.00000
     9.99512     -8.36908  145259.00000
     9.99512     -8.30068  145358.00000
     9.99512     -8.24494  145458.00000
     9.99512     -8.19880  145559.00000
     9.99512     -8.15860  145658.00000
     9.99512     -8.09058  145758.00000
    -9.99512     11.70119  147748.00000
    -9.99512     12.50944  147848.00000
    -9.99512     12.63017  147949.00000
    -9.99512     12.27127  148048.00000
    -9.99512     12.15526  148148.00000
    -9.99512     12.06636  148249.00000
    -9.99512     11.99193  148348.00000
    -9.99512     11.92863  148448.00000
    -9.99512     11.87587  148549.00000
    -9.99512     11.82822  148648.00000
    -0.00732     -0.44094  149810.00000
    -0.00732     -0.49035  149912.00000
    -0.00732     -0.43397  150011.00000
    -0.00732     -0.36273  150111.00000
    -0.00732     -0.31235  150212.00000
    -0.00732     -0.27563  150311.00000
    -0.00732     -0.22411  150411.00000
    -0.00732     -0.20436  150512.00000
    -0.00732     -0.18637  150611.00000
    -0.00732     -0.17181  150711.00000
     9.49463     -7.65055  151592.00000
     9.49463     -7.99724  151693.00000
     9.49463     -7.96247  151794.00000
     9.49463     -7.80041  151893.00000
     9.49463     -7.60962  151993.00000
     9.49463     -7.54887  152094.00000
     9.49463     -7.49778  152193.00000
     9.49463     -7.45575  152293.00000
     9.49463     -7.41960  152394.00000
     9.49463     -7.38645  152493.00000
    -9.49707     10.51303  154409.00000
    -9.49707     11.22378  154510.00000
    -9.49707     11.29964  154611.00000
    -9.49707     11.11128  154710.00000
    -9.49707     10.85688  154810.00000
    -9.49707     10.77605  154911.00000
    -9.49707     10.70983  155010.00000
    -9.49707     10.65340  155110.00000
    -9.49707     10.60475  155211.00000
    -9.49707     10.56201  155310.00000
    -0.00488     -0.45499  156478.00000
    -0.00488     -0.46504  156580.00000
    -0.00488     -0.40239  156679.00000
    -0.00488     -0.33942  156779.00000
    -0.00488     -0.29492  156879.00000
    -0.00488     -0.26193  156979.00000
    -0.00488     -0.23487  157080.00000
    -0.00488     -0.19315  157179.00000
    -0.00488     -0.17770  157279.00000
    -0.00488     -0.16422  157380.00000
     8.99170     -7.12656  158264.00000
     8.99170     -7.33231  158366.00000
     8.99170     -7.26167  158465.00000
     8.99170     -7.11784  158565.00000
     8.99170     -6.94850  158666.00000
     8.99170     -6.89350  158765.00000
     8.99170     -6.84776  158865.00000
     8.99170     -6.80905  158966.00000
     8.99170     -6.77563  159065.00000
     8.99170     -6.74581  159165.00000
    -8.99658      9.62803  161088.00000
    -8.99658     10.11477  161189.00000
    -8.99658     10.12803  161289.00000
    -8.99658      9.83305  161390.00000
    -8.99658      9.74061  161489.00000
    -8.99658      9.66799  161589.00000
    -8.99658      9.60882  161690.00000
    -8.99658      9.55876  161789.00000
    -8.99658      9.51451  161889.00000
    -8.99658      9.47626  161990.00000
    -0.00488     -0.31321  163127.00000
    -0.00488     -0.45542  163228.00000
    -0.00488     -0.38118  163327.00000
    -0.00488     -0.31994  163427.00000
    -0.00488     -0.27717  163528.00000
    -0.00488     -0.24559  163627.00000
    -0.00488     -0.22047  163726.00000
    -0.00488     -0.20031  163828.00000
    -0.00488     -0.18281  163927.00000
    -0.00488     -0.15449  164027.00000
     8.49121     -6.33237  164877.00000
     8.49121     -6.69788  164979.00000
     8.49121     -6.57761  165078.00000
     8.49121     -6.46444  165178.00000
     8.49121     -6.39048  165279.00000
     8.49121     -6.33345  165378.00000
     8.49121     -6.28730  165478.00000
     8.49121     -6.24897  165579.00000
     8.49121     -6.21566  165678.00000
     8.49121     -6.15898  165778.00000
    -8.49609      8.93117  167627.00000
    -8.49609      9.17912  167728.00000
    -8.49609      9.07546  167829.00000
    -8.49609      8.92220  167928.00000
    -8.49609      8.81919  168028.00000
    -8.49609      8.74293  168129.00000
    -8.49609      8.68144  168229.00000
    -8.49609      8.58708  168328.00000
    -8.49609      8.54837  168429.00000
    -8.49609      8.51424  168528.00000
    -0.00488     -0.23900  169630.00000
    -0.00488     -0.45115  169731.00000
    -0.00488     -0.38453  169831.00000
    -0.00488     -0.31950  169932.00000
    -0.00488     -0.27512  170031.00000
    -0.00488     -0.24127  170131.00000
    -0.00488     -0.21493  170232.00000
    -0.00488     -0.19499  170331.00000
    -0.00488     -0.16063  170432.00000
    -0.00488     -0.14736  170531.00000
     7.99072     -5.89750  171362.00000
     7.99072     -6.18038  171463.00000
     7.99072     -6.16147  171562.00000
     7.99072     -5.92849  171662.00000
     7.99072     -5.86011  171763.00000
     7.99072     -5.80732  171862.00000
     7.99072     -5.76545  171962.00000
     7.99072     -5.72946  172063.00000
     7.99072     -5.69794  172162.00000
     7.99072     -5.67068  172262.00000
    -7.99561      7.89524  174068.00000
    -7.99561      8.28513  174169.00000
    -7.99561      8.27683  174269.00000
    -7.99561      8.12728  174370.00000
    -7.99561      7.93439  174469.00000
    -7.99561      7.87303  174569.00000
    -7.99561      7.82306  174670.00000
    -7.99561      7.78018  174769.00000
    -7.99561      7.74323  174870.00000
    -7.99561      7.70940  174969.00000
    -0.00732     -0.38612  176083.00000
    -0.00732     -0.43832  176183.00000
    -0.00732     -0.38947  176284.00000
    -0.00732     -0.32450  176383.00000
    -0.00732     -0.27885  176483.00000
    -0.00732     -0.21655  176584.00000
    -0.00732     -0.19499  176683.00000
    -0.00732     -0.17716  176783.00000
    -0.00732     -0.16065  176884.00000
    -0.00732     -0.14682  176983.00000
     7.49268     -5.29889  177797.00000
     7.49268     -5.68602  177897.00000
     7.49268     -5.56599  177998.00000
     7.49268     -5.46074  178097.00000
     7.49268     -5.39242  178198.00000
     7.49268     -5.33788  178297.00000
     7.49268     -5.29641  178397.00000
     7.49268     -5.26115  178498.00000
     7.49268     -5.20350  178597.00000
     7.49268     -5.17886  178697.00000
    -7.49756      7.30279  180473.00000
    -7.49756      7.57206  180573.00000
    -7.49756      7.51851  180674.00000
    -7.49756      7.37938  180773.00000
    -7.49756      7.28113  180873.00000
    -7.49756      7.15534  180974.00000
    -7.49756      7.10909  181073.00000
    -7.49756      7.07068  181173.00000
    -7.49756      7.03656  181274.00000
    -7.49756      7.00571  181373.00000
    -0.00488     -0.24192  182437.00000
    -0.00488     -0.41101  182538.00000
    -0.00488     -0.34738  182639.00000
    -0.00488     -0.28747  182738.00000
    -0.00488     -0.24646  182838.00000
    -0.00488     -0.21620  182939.00000
    -0.00488     -0.19223  183038.00000
    -0.00488     -0.17189  183138.00000
    -0.00488     -0.15576  183239.00000
    -0.00488     -0.12894  183338.00000
     6.99219     -4.78671  184126.00000
     6.99219     -5.22557  184227.00000
     6.99219     -5.11762  184327.00000
     6.99219     -5.01131  184428.00000
     6.99219     -4.94267  184527.00000
     6.99219     -4.89118  184627.00000
     6.99219     -4.84855  184728.00000
     6.99219     -4.81362  184827.00000
     6.99219     -4.75853  184927.00000
     6.99219     -4.73741  185028.00000
    -6.99463      6.34467  186760.00000
    -6.99463      6.93360  186861.00000
    -6.99463      6.82170  186960.00000
    -6.99463      6.70287  187060.00000
    -6.99463      6.62301  187161.00000
    -6.99463      6.56339  187260.00000
    -6.99463      6.51522  187360.00000
    -6.99463      6.47513  187461.00000
    -6.99463      6.41005  187560.00000
    -6.99463      6.38292  187660.00000
    -0.00488     -0.34150  188731.00000
    -0.00488     -0.40968  188832.00000
    -0.00488     -0.36916  188931.00000
    -0.00488     -0.30440  189031.00000
    -0.00488     -0.22125  189132.00000
    -0.00488     -0.19356  189231.00000
    -0.00488     -0.17392  189331.00000
    -0.00488     -0.15717  189432.00000
    -0.00488     -0.14274  189531.00000
    -0.00488     -0.12907  189632.00000
     6.49170     -4.60722  190414.00000
     6.49170     -4.78425  190514.00000
     6.49170     -4.73662  190615.00000
     6.49170     -4.53965  190714.00000
     6.49170     -4.48560  190814.00000
     6.49170     -4.44334  190915.00000
     6.49170     -4.40720  191014.00000
     6.49170     -4.37653  191114.00000
     6.49170     -4.35119  191215.00000
     6.49170     -4.32891  191314.00000
    -6.49414      6.29485  193004.00000
    -6.49414      6.35323  193105.00000
    -6.49414      6.24787  193205.00000
    -6.49414      6.13930  193306.00000
    -6.49414      6.06541  193405.00000
    -6.49414      6.00992  193505.00000
    -6.49414      5.96510  193606.00000
    -6.49414      5.89465  193705.00000
    -6.49414      5.86801  193805.00000
    -6.49414      5.84297  193906.00000
    -0.00732     -0.34803  194939.00000
    -0.00732     -0.39628  195040.00000
    -0.00732     -0.34247  195141.00000
    -0.00732     -0.28031  195240.00000
    -0.00732     -0.23638  195340.00000
    -0.00732     -0.20428  195441.00000
    -0.00732     -0.17878  195540.00000
    -0.00732     -0.14153  195640.00000
    -0.00732     -0.12753  195741.00000
    -0.00732     -0.11513  195840.00000
     5.99365     -4.01023  196592.00000
     5.99365     -4.36367  196693.00000
     5.99365     -4.26418  196793.00000
     5.99365     -4.17003  196894.00000
     5.99365     -4.10795  196993.00000
     5.99365     -4.06186  197093.00000
     5.99365     -4.02639  197194.00000
     5.99365     -3.99540  197293.00000
     5.99365     -3.94677  197393.00000
     5.99365     -3.92627  197494.00000
    -5.99365      5.53094  199116.00000
    -5.99365      5.82125  199217.00000
    -5.99365      5.82081  199318.00000
    -5.99365      5.61150  199417.00000
    -5.99365      5.54766  199517.00000
    -5.99365      5.49790  199618.00000
    -5.99365      5.45759  199718.00000
    -5.99365      5.42339  199817.00000
    -5.99365      5.39335  199918.00000
    -5.99365      5.36733  200017.00000
    -0.00732     -0.26447  201015.00000
    -0.00732     -0.37813  201116.00000
    -0.00732     -0.34657  201215.00000
    -0.00732     -0.27812  201315.00000
    -0.00732     -0.23022  201416.00000
    -0.00732     -0.16992  201515.00000
    -0.00732     -0.14990  201615.00000
    -0.00732     -0.13296  201716.00000
    -0.00732     -0.11789  201815.00000
    -0.00732     -0.10546  201915.00000
     5.49072     -3.66806  202631.00000
     5.49072     -3.94507  202733.00000
     5.49072     -3.85508  202832.00000
     5.49072     -3.77039  202932.00000
     5.49072     -3.71506  203033.00000
     5.49072     -3.67276  203132.00000
     5.49072     -3.63937  203232.00000
     5.49072     -3.61065  203333.00000
     5.49072     -3.58644  203432.00000
     5.49072     -3.56516  203532.00000
    -5.49316      5.29369  205112.00000
    -5.49316      5.36893  205214.00000
    -5.49316      5.27057  205313.00000
    -5.49316      5.16929  205413.00000
    -5.49316      5.10204  205514.00000
    -5.49316      5.05120  205613.00000
    -5.49316      5.01068  205713.00000
    -5.49316      4.97642  205814.00000
    -5.49316      4.92361  205913.00000
    -5.49316      4.90159  206013.00000
    -0.00732     -0.23681  206981.00000
    -0.00732     -0.36003  207081.00000
    -0.00732     -0.32847  207182.00000
    -0.00732     -0.26042  207281.00000
    -0.00732     -0.21331  207382.00000
    -0.00732     -0.17970  207481.00000
    -0.00732     -0.13413  207581.00000
    -0.00732     -0.11748  207682.00000
    -0.00732     -0.10336  207781.00000
    -0.00732     -0.09166  207881.00000
     4.99512     -3.41460  208585.00000
     4.99512     -3.59163  208686.00000
     4.99512     -3.55511  208786.00000
     4.99512     -3.45596  208887.00000
     4.99512     -3.33828  208986.00000
     4.99512     -3.30157  209086.00000
     4.99512     -3.27031  209187.00000
     4.99512     -3.24402  209286.00000
     4.99512     -3.22225  209387.00000
     4.99512     -3.20291  209486.00000
    -4.99512      4.73896  211036.00000
    -4.99512      4.92728  211137.00000
    -4.99512      4.87919  211236.00000
    -4.99512      4.77300  211336.00000
    -4.99512      4.64562  211437.00000
    -4.99512      4.60288  211536.00000
    -4.99512      4.56741  211636.00000
    -4.99512      4.53902  211737.00000
    -4.99512      4.51459  211836.00000
    -4.99512      4.49282  211936.00000
    -0.00488     -0.15131  212886.00000
    -0.00488     -0.32377  212986.00000
    -0.00488     -0.31937  213086.00000
    -0.00488     -0.25375  213187.00000
    -0.00488     -0.16879  213286.00000
    -0.00488     -0.14472  213386.00000
    -0.00488     -0.12343  213487.00000
    -0.00488     -0.10576  213586.00000
    -0.00488     -0.09244  213686.00000
    -0.00488     -0.07988  213787.00000
     4.49219     -3.06734  214471.00000
     4.49219     -3.22649  214572.00000
     4.49219     -3.18956  214672.00000
     4.49219     -3.02949  214773.00000
     4.49219     -2.98479  214872.00000
     4.49219     -2.95018  214972.00000
     4.49219     -2.92195  215073.00000
     4.49219     -2.89717  215172.00000
     4.49219     -2.87675  215272.00000
     4.49219     -2.85846  215373.00000
    -4.49463      4.25076  216848.00000
    -4.49463      4.48955  216950.00000
    -4.49463      4.47964  217049.00000
    -4.49463      4.30163  217149.00000
    -4.49463      4.24901  217250.00000
    -4.49463      4.20629  217349.00000
    -4.49463      4.17272  217449.00000
    -4.49463      4.14527  217549.00000
    -4.49463      4.12141  217649.00000
    -4.49463      4.09918  217750.00000
    -0.00488     -0.13472  218673.00000
    -0.00488     -0.30035  218775.00000
    -0.00488     -0.29119  218874.00000
    -0.00488     -0.22841  218974.00000
    -0.00488     -0.14820  219075.00000
    -0.00488     -0.12345  219174.00000
    -0.00488     -0.10430  219274.00000
    -0.00488     -0.08774  219375.00000
    -0.00488     -0.07288  219474.00000
    -0.00488     -0.06186  219574.00000
     3.99170     -2.50869  220210.00000
     3.99170     -2.88207  220311.00000
     3.99170     -2.79911  220411.00000
     3.99170     -2.71903  220511.00000
     3.99170     -2.66868  220612.00000
     3.99170     -2.63110  220711.00000
     3.99170     -2.59971  220811.00000
     3.99170     -2.57529  220912.00000
     3.99170     -2.53571  221011.00000
     3.99170     -2.51977  221111.00000
    -3.99658      3.95016  222515.00000
    -3.99658      4.10674  222617.00000
    -3.99658      4.04664  222716.00000
    -3.99658      3.95254  222816.00000
    -3.99658      3.88895  222917.00000
    -3.99658      3.84348  223016.00000
    -3.99658      3.77881  223116.00000
    -3.99658      3.75473  223217.00000
    -3.99658      3.73242  223316.00000
    -3.99658      3.71272  223416.00000
    -0.00732     -0.00445  224323.00000
    -0.00732     -0.24078  224424.00000
    -0.00732     -0.21863  224524.00000
    -0.00732     -0.16825  224625.00000
    -0.00732     -0.13372  224724.00000
    -0.00732     -0.10795  224824.00000
    -0.00732     -0.08717  224925.00000
    -0.00732     -0.07099  225024.00000
    -0.00732     -0.05783  225124.00000
    -0.00732     -0.03609  225225.00000
     3.48877     -2.48189  225836.00000
     3.48877     -2.54765  225937.00000
     3.48877     -2.47266  226038.00000
     3.48877     -2.39526  226137.00000
     3.48877     -2.34622  226237.00000
     3.48877     -2.31008  226338.00000
     3.48877     -2.28133  226437.00000
     3.48877     -2.23824  226537.00000
     3.48877     -2.22266  226637.00000
     3.48877     -2.20758  226737.00000
    -3.49609      3.32808  228098.00000
    -3.49609      3.65426  228199.00000
    -3.49609      3.61428  228300.00000
    -3.49609      3.54023  228399.00000
    -3.49609      3.49004  228499.00000
    -3.49609      3.45149  228600.00000
    -3.49609      3.42050  228699.00000
    -3.49609      3.39478  228800.00000
    -3.49609      3.37287  228899.00000
    -3.49609      3.33745  228999.00000
    -0.00732      0.16745  229862.00000
    -0.00732     -0.24300  229964.00000
    -0.00732     -0.19702  230063.00000
    -0.00732     -0.14391  230163.00000
    -0.00732     -0.10808  230264.00000
    -0.00732     -0.08328  230363.00000
    -0.00732     -0.06340  230464.00000
    -0.00732     -0.04679  230563.00000
    -0.00732     -0.02331  230663.00000
    -0.00732     -0.01372  230764.00000
     2.99072     -1.94340  231338.00000
     2.99072     -2.19896  231438.00000
     2.99072     -2.21255  231539.00000
     2.99072     -2.06651  231638.00000
     2.99072     -2.02439  231738.00000
     2.99072     -1.99348  231839.00000
     2.99072     -1.96825  231938.00000
     2.99072     -1.94718  232038.00000
     2.99072     -1.92865  232139.00000
     2.99072     -1.91319  232238.00000
    -2.99560      2.98210  233525.00000
    -2.99560      3.27716  233627.00000
    -2.99560      3.29750  233726.00000
    -2.99560      3.14894  233826.00000
    -2.99560      3.10491  233927.00000
    -2.99560      3.07162  234026.00000
    -2.99560      3.04299  234126.00000
    -2.99560      3.02038  234227.00000
    -2.99560      3.00125  234326.00000
    -2.99560      2.98323  234426.00000
    -0.00732      0.03086  235278.00000
    -0.00732     -0.17932  235379.00000
    -0.00732     -0.18527  235478.00000
    -0.00732     -0.09066  235578.00000
    -0.00732     -0.06205  235679.00000
    -0.00732     -0.04190  235778.00000
    -0.00732     -0.02552  235878.00000
    -0.00732     -0.01121  235979.00000
    -0.00732      0.00114  236078.00000
    -0.00732      0.00981  236178.00000
     2.49512     -1.45639  236711.00000
     2.49512     -1.90414  236812.00000
     2.49512     -1.83763  236913.00000
     2.49512     -1.76866  237012.00000
     2.49512     -1.72571  237112.00000
     2.49512     -1.69415  237213.00000
     2.49512     -1.66965  237312.00000
     2.49512     -1.64815  237412.00000
     2.49512     -1.61713  237513.00000
     2.49512     -1.60468  237612.00000
    -2.49512      2.35110  238820.00000
    -2.49512      2.91847  238922.00000
    -2.49512      2.85912  239021.00000
    -2.49512      2.78888  239121.00000
    -2.49512      2.74287  239222.00000
    -2.49512      2.70886  239321.00000
    -2.49512      2.68209  239421.00000
    -2.49512      2.65956  239522.00000
    -2.49512      2.62341  239621.00000
    -2.49512      2.60966  239721.00000
    -0.00732      0.07905  240524.00000
    -0.00732     -0.13369  240626.00000
    -0.00732     -0.13334  240725.00000
    -0.00732     -0.08272  240825.00000
    -0.00732     -0.04665  240926.00000
    -0.00732     -0.00232  241025.00000
    -0.00732      0.01208  241125.00000
    -0.00732      0.02486  241226.00000
    -0.00732      0.03521  241325.00000
    -0.00732      0.04442  241425.00000
     1.99463     -1.38096  241927.00000
     1.99463     -1.56305  242029.00000
     1.99463     -1.53584  242128.00000
     1.99463     -1.46622  242228.00000
     1.99463     -1.42157  242329.00000
     1.99463     -1.36421  242428.00000
     1.99463     -1.34447  242528.00000
     1.99463     -1.32796  242629.00000
     1.99463     -1.31305  242728.00000
     1.99463     -1.30035  242828.00000
    -1.99463      2.15591  243969.00000
    -1.99463      2.47024  244070.00000
    -1.99463      2.50546  244171.00000
    -1.99463      2.43711  244270.00000
    -1.99463      2.34748  244370.00000
    -1.99463      2.31922  244471.00000
    -1.99463      2.29677  244570.00000
    -1.99463      2.27805  244670.00000
    -1.99463      2.26265  244771.00000
    -1.99463      2.24809  244870.00000
    -0.00732      0.29383  245636.00000
    -0.00732     -0.03703  245737.00000
    -0.00732     -0.08466  245838.00000
    -0.00732     -0.04133  245937.00000
    -0.00732      0.02016  246038.00000
    -0.00732      0.03856  246137.00000
    -0.00732      0.05290  246237.00000
    -0.00732      0.06322  246338.00000
    -0.00732      0.07305  246437.00000
    -0.00732      0.08213  246537.00000
     1.49170     -1.07901  246997.00000
     1.49170     -1.21952  247097.00000
     1.49170     -1.17559  247198.00000
     1.49170     -1.11600  247297.00000
     1.49170     -1.08096  247397.00000
     1.49170     -1.05513  247498.00000
     1.49170     -1.03455  247597.00000
     1.49170     -1.00491  247697.00000
     1.49170     -0.99248  247798.00000
     1.49170     -0.98160  247897.00000
    -1.49414      1.83737  248948.00000
    -1.49414      2.07886  249048.00000
    -1.49414      2.07627  249148.00000
    -1.49414      2.01668  249249.00000
    -1.49414      1.97502  249348.00000
    -1.49414      1.94608  249448.00000
    -1.49414      1.90532  249549.00000
    -1.49414      1.88965  249648.00000
    -1.49414      1.87674  249749.00000
    -1.49414      1.86542  249848.00000
    -0.00732      0.60547  250571.00000
    -0.00732      0.10280  250672.00000
    -0.00732      0.01897  250773.00000
    -0.00732      0.05398  250872.00000
    -0.00732      0.07551  250972.00000
    -0.00732      0.09116  251073.00000
    -0.00732      0.10393  251172.00000
    -0.00732      0.11355  251272.00000
    -0.00732      0.12266  251373.00000
    -0.00732      0.13006  251472.00000
     0.99365     -0.37532  251870.00000
     0.99365     -0.76110  251971.00000
     0.99365     -0.83674  252070.00000
     0.99365     -0.78552  252170.00000
     0.99365     -0.71990  252271.00000
     0.99365     -0.70042  252370.00000
     0.99365     -0.68616  252470.00000
     0.99365     -0.67327  252571.00000
     0.99365     -0.66219  252670.00000
     0.99365     -0.65306  252770.00000
    -0.99365      1.16315  253717.00000
    -0.99365      1.54658  253818.00000
    -0.99365      1.63973  253918.00000
    -0.99365      1.59613  254019.00000
    -0.99365      1.53005  254118.00000
    -0.99365      1.51030  254218.00000
    -0.99365      1.49463  254319.00000
    -0.99365      1.48172  254418.00000
    -0.99365      1.47021  254518.00000
    -0.99365      1.46154  254619.00000
    -0.00732      0.65799  255280.00000
    -0.00732      0.18028  255382.00000
    -0.00732      0.08389  255481.00000
    -0.00732      0.11261  255581.00000
    -0.00732      0.13778  255682.00000
    -0.00732      0.16593  255781.00000
    -0.00732      0.17555  255881.00000
    -0.00732      0.18271  255982.00000
    -0.00732      0.18874  256081.00000
    -0.00732      0.19449  256180.00000
     0.49316      0.03785  256518.00000
     0.49316     -0.27860  256619.00000
     0.49316     -0.39007  256719.00000
     0.49316     -0.36068  256819.00000
     0.49316     -0.31540  256920.00000
     0.49316     -0.30254  257019.00000
     0.49316     -0.29254  257119.00000
     0.49316     -0.28471  257219.00000
     0.49316     -0.27666  257319.00000
     0.49316     -0.26996  257419.00000
    -0.49316      0.79717  258237.00000
    -0.49316      1.05625  258339.00000
    -0.49316      1.09099  258438.00000
    -0.49316      1.06060  258539.00000
    -0.49316      1.03996  258638.00000
    -0.49316      1.02418  258738.00000
    -0.49316      1.01300  258839.00000
    -0.49316      0.99644  258938.00000
    -0.49316      0.98985  259038.00000
    -0.49316      0.98366  259139.00000
    -0.00732      0.64859  259726.00000
    -0.00732      0.28893  259828.00000
    -0.00732      0.20635  259927.00000
    -0.00732      0.22340  260027.00000
    -0.00732      0.23763  260128.00000
    -0.00732      0.24682  260227.00000
    -0.00732      0.25371  260327.00000
    -0.00732      0.25903  260428.00000
    -0.00732      0.26414  260527.00000
    -0.00732      0.26813  260627.00000