# Acquired on 26/08/2024 11:23:36 
# SPIDER: CNT0771454C-1_PreRodaggio_2024-08-26
# TRACKING MEASUREMENT

  # pos [mm]    force [N]     time [ms]
     0.48828     -0.16178     236.00000
     0.48828     -0.77265     337.00000
     0.48828     -1.22345     436.00000
     0.48828     -1.25963     536.00000
     0.48828     -1.24974     637.00000
     0.48828     -1.24201     736.00000
     0.48828     -1.23612     836.00000
     0.48828     -1.23159     937.00000
     0.48828     -1.22697    1036.00000
     0.48828     -1.22372    1136.00000
    -0.49072      0.54356    1942.00000
    -0.49072      1.15689    2044.00000
    -0.49072      1.32704    2143.00000
    -0.49072      1.31699    2243.00000
    -0.49072      1.30116    2344.00000
    -0.49072      1.29111    2443.00000
    -0.49072      1.28395    2543.00000
    -0.49072      1.27168    2644.00000
    -0.49072      1.26704    2743.00000
    -0.49072      1.26469    2843.00000
    -0.00732      0.83182    3438.00000
    -0.00732      0.21730    3540.00000
    -0.00732      0.00715    3639.00000
    -0.00732      0.00345    3739.00000
    -0.00732      0.01128    3840.00000
    -0.00732      0.01682    3939.00000
    -0.00732      0.02111    4039.00000
    -0.00732      0.02657    4140.00000
    -0.00732      0.02690    4239.00000
    -0.00732      0.02787    4339.00000
     0.99365     -1.71519    4744.00000
     0.99365     -2.44471    4844.00000
     0.99365     -2.56958    4946.00000
     0.99365     -2.54507    5045.00000
     0.99365     -2.52595    5145.00000
     0.99365     -2.51303    5246.00000
     0.99365     -2.50088    5345.00000
     0.99365     -2.48307    5445.00000
     0.99365     -2.47624    5546.00000
     0.99365     -2.46970    5645.00000
    -0.99121      1.76509    6591.00000
    -0.99121      2.50596    6693.00000
    -0.99121      2.64317    6792.00000
    -0.99121      2.61891    6892.00000
    -0.99121      2.59662    6993.00000
    -0.99121      2.58017    7092.00000
    -0.99121      2.56634    7192.00000
    -0.99121      2.54562    7293.00000
    -0.99121      2.53743    7392.00000
    -0.99121      2.53138    7492.00000
    -0.00732      1.88671    8161.00000
    -0.00732      0.07828    8262.00000
    -0.00732     -0.03416    8363.00000
    -0.00732     -0.01997    8462.00000
    -0.00732     -0.00801    8562.00000
    -0.00732      0.00099    8663.00000
    -0.00732      0.00758    8762.00000
    -0.00732      0.01358    8862.00000
    -0.00732      0.02052    8963.00000
    -0.00732      0.02344    9062.00000
     1.49414     -2.43207    9521.00000
     1.49414     -3.53589    9621.00000
     1.49414     -3.85453    9723.00000
     1.49414     -3.84694    9822.00000
     1.49414     -3.79367    9922.00000
     1.49414     -3.77587   10023.00000
     1.49414     -3.76109   10122.00000
     1.49414     -3.75020   10222.00000
     1.49414     -3.73980   10323.00000
     1.49414     -3.73029   10422.00000
    -1.49170      2.21463   11472.00000
    -1.49170      3.43907   11573.00000
    -1.49170      3.89377   11673.00000
    -1.49170      3.85730   11774.00000
    -1.49170      3.83133   11873.00000
    -1.49170      3.81156   11973.00000
    -1.49170      3.79481   12074.00000
    -1.49170      3.78033   12173.00000
    -1.49170      3.76809   12273.00000
    -1.49170      3.74723   12374.00000
    -0.00732      0.91767   13090.00000
    -0.00732      0.09927   13190.00000
    -0.00732     -0.07757   13291.00000
    -0.00732     -0.06447   13392.00000
    -0.00732     -0.04499   13491.00000
    -0.00732     -0.03189   13591.00000
    -0.00732     -0.01436   13692.00000
    -0.00732     -0.00828   13791.00000
    -0.00732     -0.00301   13891.00000
    -0.00732      0.00169   13992.00000
     1.99463     -4.21578   14492.00000
     1.99463     -5.02090   14594.00000
     1.99463     -5.17267   14693.00000
     1.99463     -5.13479   14794.00000
     1.99463     -5.10027   14893.00000
     1.99463     -5.07501   14993.00000
     1.99463     -5.03805   15094.00000
     1.99463     -5.02154   15193.00000
     1.99463     -5.00906   15293.00000
     1.99463     -4.99847   15394.00000
    -1.99463      3.92094   16533.00000
    -1.99463      4.89757   16635.00000
    -1.99463      5.14852   16734.00000
    -1.99463      5.12313   16834.00000
    -1.99463      5.05402   16935.00000
    -1.99463      5.03079   17034.00000
    -1.99463      5.01061   17134.00000
    -1.99463      4.99275   17235.00000
    -1.99463      4.97803   17334.00000
    -1.99463      4.96565   17434.00000
    -0.00732      1.10076   18200.00000
    -0.00732      0.14322   18302.00000
    -0.00732     -0.11293   18401.00000
    -0.00732     -0.11077   18501.00000
    -0.00732     -0.06852   18602.00000
    -0.00732     -0.05523   18701.00000
    -0.00732     -0.04483   18801.00000
    -0.00732     -0.03737   18902.00000
    -0.00732     -0.02878   19001.00000
    -0.00732     -0.02224   19101.00000
     2.49512     -4.40438   19634.00000
     2.49512     -5.88606   19734.00000
     2.49512     -6.47054   19835.00000
     2.49512     -6.41837   19934.00000
     2.49512     -6.38169   20034.00000
     2.49512     -6.35321   20135.00000
     2.49512     -6.33041   20234.00000
     2.49512     -6.31044   20334.00000
     2.49512     -6.29386   20435.00000
     2.49512     -6.26501   20534.00000
    -2.49512      4.14333   21755.00000
    -2.49512      6.30837   21856.00000
    -2.49512      6.38145   21956.00000
    -2.49512      6.33047   22057.00000
    -2.49512      6.29008   22156.00000
    -2.49512      6.25763   22256.00000
    -2.49512      6.23270   22357.00000
    -2.49512      6.21166   22456.00000
    -2.49512      6.17524   22556.00000
    -2.49512      6.16035   22657.00000
    -0.00732      0.96581   23452.00000
    -0.00732      0.06485   23554.00000
    -0.00732     -0.15584   23653.00000
    -0.00732     -0.14090   23754.00000
    -0.00732     -0.11248   23853.00000
    -0.00732     -0.07638   23953.00000
    -0.00732     -0.06331   24054.00000
    -0.00732     -0.05455   24153.00000
    -0.00732     -0.04607   24253.00000
    -0.00732     -0.03791   24354.00000
     2.99072     -6.88396   24928.00000
     2.99072     -7.66064   25029.00000
     2.99072     -7.78124   25130.00000
     2.99072     -7.72321   25229.00000
     2.99072     -7.67513   25329.00000
     2.99072     -7.63947   25430.00000
     2.99072     -7.58614   25529.00000
     2.99072     -7.56433   25629.00000
     2.99072     -7.54545   25730.00000
     2.99072     -7.52824   25829.00000
    -2.99316      6.85378   27117.00000
    -2.99316      7.51193   27218.00000
    -2.99316      7.59989   27317.00000
    -2.99316      7.54365   27417.00000
    -2.99316      7.49675   27518.00000
    -2.99316      7.45993   27617.00000
    -2.99316      7.42948   27717.00000
    -2.99316      7.38231   27818.00000
    -2.99316      7.36302   27917.00000
    -2.99316      7.34633   28017.00000
    -0.00732      1.73824   28857.00000
    -0.00732     -0.12847   28957.00000
    -0.00732     -0.18866   29058.00000
    -0.00732     -0.15349   29157.00000
    -0.00732     -0.12536   29258.00000
    -0.00732     -0.10432   29357.00000
    -0.00732     -0.08870   29457.00000
    -0.00732     -0.07563   29558.00000
    -0.00732     -0.05801   29657.00000
    -0.00732     -0.05048   29757.00000
     3.49365     -8.20068   30370.00000
     3.49365     -8.95592   30470.00000
     3.49365     -9.07193   30570.00000
     3.49365     -9.00690   30671.00000
     3.49365     -8.95184   30770.00000
     3.49365     -8.91054   30870.00000
     3.49365     -8.84611   30971.00000
     3.49365     -8.82015   31070.00000
     3.49365     -8.79942   31170.00000
     3.49365     -8.77916   31271.00000
    -3.49365      8.18786   32637.00000
    -3.49365      8.75423   32737.00000
    -3.49365      8.80967   32837.00000
    -3.49365      8.74486   32938.00000
    -3.49365      8.69488   33037.00000
    -3.49365      8.65576   33137.00000
    -3.49365      8.62445   33238.00000
    -3.49365      8.57104   33337.00000
    -3.49365      8.55018   33437.00000
    -3.49365      8.53117   33538.00000
    -0.00732      0.64152   34413.00000
    -0.00732     -0.07095   34514.00000
    -0.00732     -0.22137   34613.00000
    -0.00732     -0.19444   34713.00000
    -0.00732     -0.16021   34814.00000
    -0.00732     -0.11583   34913.00000
    -0.00732     -0.09924   35013.00000
    -0.00732     -0.08551   35114.00000
    -0.00732     -0.07465   35213.00000
    -0.00732     -0.06506   35313.00000
     3.99414     -8.39657   35949.00000
     3.99414    -10.31693   36051.00000
     3.99414    -10.32284   36150.00000
     3.99414    -10.24526   36250.00000
     3.99414    -10.18888   36351.00000
     3.99414    -10.14387   36450.00000
     3.99414    -10.10656   36550.00000
     3.99414    -10.07565   36651.00000
     3.99414    -10.02262   36750.00000
     3.99414    -10.00061   36850.00000
    -3.99170      9.23167   38261.00000
    -3.99170      9.93969   38360.00000
    -3.99170     10.04621   38460.00000
    -3.99170      9.97784   38561.00000
    -3.99170      9.91892   38660.00000
    -3.99170      9.87348   38760.00000
    -3.99170      9.80694   38861.00000
    -3.99170      9.77863   38960.00000
    -3.99170      9.75364   39060.00000
    -3.99170      9.73105   39161.00000
    -0.00732      1.15730   40060.00000
    -0.00732      0.10567   40160.00000
    -0.00732     -0.23637   40260.00000
    -0.00732     -0.19471   40361.00000
    -0.00732     -0.16424   40460.00000
    -0.00732     -0.14060   40560.00000
    -0.00732     -0.12166   40661.00000
    -0.00732     -0.10605   40760.00000
    -0.00732     -0.09259   40860.00000
    -0.00732     -0.07190   40961.00000
     4.49463    -10.16327   41639.00000
     4.49463    -11.27873   41740.00000
     4.49463    -11.54032   41840.00000
     4.49463    -11.46133   41941.00000
     4.49463    -11.40278   42040.00000
     4.49463    -11.35605   42140.00000
     4.49463    -11.31514   42241.00000
     4.49463    -11.28041   42340.00000
     4.49463    -11.24977   42440.00000
     4.49463    -11.19744   42541.00000
    -4.49219      9.80459   44016.00000
    -4.49219     11.26255   44118.00000
    -4.49219     11.24437   44217.00000
    -4.49219     11.17040   44317.00000
    -4.49219     11.11483   44418.00000
    -4.49219     11.07050   44517.00000
    -4.49219     11.03281   44618.00000
    -4.49219     10.99996   44717.00000
    -4.49219     10.94591   44817.00000
    -4.49219     10.92329   44918.00000
    -0.00732      1.01158   45835.00000
    -0.00732      0.02503   45935.00000
    -0.00732     -0.27057   46036.00000
    -0.00732     -0.21843   46135.00000
    -0.00732     -0.18550   46235.00000
    -0.00732     -0.15935   46336.00000
    -0.00732     -0.13760   46435.00000
    -0.00732     -0.11985   46535.00000
    -0.00732     -0.10553   46636.00000
    -0.00732     -0.09340   46735.00000
     4.99512    -11.15176   47439.00000
     4.99512    -12.81474   47540.00000
     4.99512    -12.78073   47640.00000
     4.99512    -12.68637   47741.00000
     4.99512    -12.61877   47840.00000
     4.99512    -12.56480   47940.00000
     4.99512    -12.51841   48041.00000
     4.99512    -12.48002   48140.00000
     4.99512    -12.41483   48240.00000
     4.99512    -12.38663   48341.00000
    -4.99268     11.37572   49872.00000
    -4.99268     12.30462   49972.00000
    -4.99268     12.52703   50072.00000
    -4.99268     12.39080   50173.00000
    -4.99268     12.33393   50272.00000
    -4.99268     12.28752   50372.00000
    -4.99268     12.24732   50473.00000
    -4.99268     12.21287   50572.00000
    -4.99268     12.18288   50672.00000
    -4.99268     12.15619   50773.00000
    -0.00732      1.05361   51721.00000
    -0.00732      0.03841   51822.00000
    -0.00732     -0.29091   51923.00000
    -0.00732     -0.24193   52022.00000
    -0.00732     -0.20600   52122.00000
    -0.00732     -0.17807   52223.00000
    -0.00732     -0.15538   52322.00000
    -0.00732     -0.13644   52422.00000
    -0.00732     -0.12036   52523.00000
    -0.00732     -0.09581   52622.00000
     5.49072    -13.27106   53344.00000
     5.49072    -13.97481   53445.00000
     5.49072    -14.04394   53546.00000
     5.49072    -13.93953   53645.00000
     5.49072    -13.85440   53745.00000
     5.49072    -13.78859   53846.00000
     5.49072    -13.68850   53945.00000
     5.49072    -13.64844   54045.00000
     5.49072    -13.61326   54146.00000
     5.49072    -13.58103   54245.00000
    -5.49316     12.74861   55813.00000
    -5.49316     13.60384   55914.00000
    -5.49316     13.77290   56015.00000
    -5.49316     13.69299   56114.00000
    -5.49316     13.55245   56214.00000
    -5.49316     13.50194   56315.00000
    -5.49316     13.45906   56414.00000
    -5.49316     13.42219   56514.00000
    -5.49316     13.38974   56615.00000
    -5.49316     13.36094   56714.00000
    -0.00732      1.04308   57688.00000
    -0.00732      0.02571   57788.00000
    -0.00732     -0.31533   57889.00000
    -0.00732     -0.26398   57988.00000
    -0.00732     -0.22483   58088.00000
    -0.00732     -0.19431   58189.00000
    -0.00732     -0.17002   58288.00000
    -0.00732     -0.15097   58388.00000
    -0.00732     -0.13395   58489.00000
    -0.00732     -0.10472   58588.00000
     5.99365    -14.06531   59341.00000
     5.99365    -15.07360   59441.00000
     5.99365    -15.29769   59541.00000
     5.99365    -15.10426   59642.00000
     5.99365    -15.02754   59741.00000
     5.99365    -14.96427   59841.00000
     5.99365    -14.91105   59942.00000
     5.99365    -14.86440   60041.00000
     5.99365    -14.82398   60141.00000
     5.99365    -14.78762   60242.00000
    -5.99121     13.70201   61893.00000
    -5.99121     14.73516   61995.00000
    -5.99121     14.95479   62094.00000
    -5.99121     14.86286   62194.00000
    -5.99121     14.79332   62295.00000
    -5.99121     14.73697   62394.00000
    -5.99121     14.68715   62494.00000
    -5.99121     14.64560   62594.00000
    -5.99121     14.60883   62694.00000
    -5.99121     14.54719   62795.00000
    -0.00732      0.46052   63786.00000
    -0.00732     -0.22662   63886.00000
    -0.00732     -0.37223   63986.00000
    -0.00732     -0.32711   64087.00000
    -0.00732     -0.27516   64186.00000
    -0.00732     -0.20773   64286.00000
    -0.00732     -0.18404   64387.00000
    -0.00732     -0.16340   64486.00000
    -0.00732     -0.14635   64587.00000
    -0.00732     -0.13093   64686.00000
     6.49170    -15.61675   65474.00000
     6.49170    -16.41945   65576.00000
     6.49170    -16.53716   65675.00000
     6.49170    -16.31777   65775.00000
     6.49170    -16.23775   65876.00000
     6.49170    -16.17175   65975.00000
     6.49170    -16.11566   66075.00000
     6.49170    -16.06761   66176.00000
     6.49170    -16.02341   66275.00000
     6.49170    -15.98332   66375.00000
    -6.49414     15.83695   68066.00000
    -6.49414     16.24918   68166.00000
    -6.49414     16.23354   68267.00000
    -6.49414     16.13018   68366.00000
    -6.49414     16.04808   68466.00000
    -6.49414     15.98232   68567.00000
    -6.49414     15.88212   68666.00000
    -6.49414     15.83982   68766.00000
    -6.49414     15.80202   68867.00000
    -6.49414     15.76896   68966.00000
    -0.00732      0.10411   69994.00000
    -0.00732     -0.34405   70095.00000
    -0.00732     -0.39238   70194.00000
    -0.00732     -0.33657   70294.00000
    -0.00732     -0.28675   70395.00000
    -0.00732     -0.25055   70493.00000
    -0.00732     -0.19779   70594.00000
    -0.00732     -0.17647   70695.00000
    -0.00732     -0.15916   70794.00000
    -0.00732     -0.14381   70894.00000
     6.99219    -16.79445   71683.00000
     6.99219    -17.67764   71784.00000
     6.99219    -17.80377   71885.00000
     6.99219    -17.67329   71984.00000
     6.99219    -17.47059   72084.00000
     6.99219    -17.39768   72185.00000
     6.99219    -17.33644   72284.00000
     6.99219    -17.28138   72384.00000
     6.99219    -17.23407   72485.00000
     6.99219    -17.19055   72584.00000
    -6.99463     16.69485   74305.00000
    -6.99463     17.44093   74406.00000
    -6.99463     17.53344   74505.00000
    -6.99463     17.41811   74605.00000
    -6.99463     17.31888   74706.00000
    -6.99463     17.17983   74805.00000
    -6.99463     17.12515   74905.00000
    -6.99463     17.07766   75006.00000
    -6.99463     17.03600   75105.00000
    -6.99463     16.99875   75205.00000
    -0.00732      0.44083   76270.00000
    -0.00732     -0.25498   76372.00000
    -0.00732     -0.39716   76471.00000
    -0.00732     -0.34132   76571.00000
    -0.00732     -0.29831   76672.00000
    -0.00732     -0.26309   76771.00000
    -0.00732     -0.23583   76871.00000
    -0.00732     -0.21268   76972.00000
    -0.00732     -0.19271   77071.00000
    -0.00732     -0.16081   77171.00000
     7.49268    -18.25628   77985.00000
     7.49268    -19.00752   78086.00000
     7.49268    -19.06309   78186.00000
     7.49268    -18.91629   78287.00000
     7.49268    -18.79548   78386.00000
     7.49268    -18.62804   78486.00000
     7.49268    -18.56209   78587.00000
     7.49268    -18.50436   78686.00000
     7.49268    -18.45471   78786.00000
     7.49268    -18.40992   78887.00000
    -7.49268     17.37572   80655.00000
    -7.49268     18.51671   80755.00000
    -7.49268     18.73786   80856.00000
    -7.49268     18.61751   80955.00000
    -7.49268     18.52774   81056.00000
    -7.49268     18.45266   81155.00000
    -7.49268     18.38899   81255.00000
    -7.49268     18.33477   81356.00000
    -7.49268     18.28714   81455.00000
    -7.49268     18.20590   81555.00000
    -0.00732      0.04754   82638.00000
    -0.00732     -0.40505   82739.00000
    -0.00732     -0.46740   82839.00000
    -0.00732     -0.41059   82940.00000
    -0.00732     -0.35615   83039.00000
    -0.00732     -0.28354   83139.00000
    -0.00732     -0.25655   83240.00000
    -0.00732     -0.23315   83339.00000
    -0.00732     -0.21260   83439.00000
    -0.00732     -0.19566   83540.00000
     7.99316    -19.70436   84370.00000
     7.99316    -20.34341   84471.00000
     7.99316    -20.33200   84570.00000
     7.99316    -20.16818   84670.00000
     7.99316    -20.04394   84771.00000
     7.99316    -19.94728   84870.00000
     7.99316    -19.86667   84970.00000
     7.99316    -19.73823   85071.00000
     7.99316    -19.68447   85170.00000
     7.99316    -19.63558   85270.00000
    -7.99316     18.13793   87069.00000
    -7.99316     20.07569   87171.00000
    -7.99316     20.03557   87270.00000
    -7.99316     19.89725   87371.00000
    -7.99316     19.79270   87470.00000
    -7.99316     19.70852   87570.00000
    -7.99316     19.63731   87671.00000
    -7.99316     19.57661   87770.00000
    -7.99316     19.47606   87870.00000
    -7.99316     19.43240   87971.00000
    -0.00732      0.33255   89071.00000
    -0.00732     -0.33843   89173.00000
    -0.00732     -0.47540   89272.00000
    -0.00732     -0.41405   89372.00000
    -0.00732     -0.36691   89472.00000
    -0.00732     -0.32854   89572.00000
    -0.00732     -0.29750   89672.00000
    -0.00732     -0.27165   89773.00000
    -0.00732     -0.24936   89872.00000
    -0.00732     -0.21459   89973.00000
     8.49365    -20.11399   90821.00000
     8.49365    -21.39433   90923.00000
     8.49365    -21.58103   91022.00000
     8.49365    -21.41948   91122.00000
     8.49365    -21.30059   91223.00000
     8.49365    -21.20271   91322.00000
     8.49365    -21.12191   91422.00000
     8.49365    -21.05169   91523.00000
     8.49365    -20.98929   91622.00000
     8.49365    -20.88317   91723.00000
    -8.49121     20.86654   93564.00000
    -8.49121     21.37148   93665.00000
    -8.49121     21.32447   93765.00000
    -8.49121     21.17462   93866.00000
    -8.49121     21.06064   93965.00000
    -8.49121     20.96874   94065.00000
    -8.49121     20.89269   94166.00000
    -8.49121     20.76982   94265.00000
    -8.49121     20.71909   94365.00000
    -8.49121     20.67181   94466.00000
    -0.00732     -0.27262   95585.00000
    -0.00732     -0.54251   95685.00000
    -0.00732     -0.53362   95786.00000
    -0.00732     -0.46648   95885.00000
    -0.00732     -0.41191   95985.00000
    -0.00732     -0.36885   96086.00000
    -0.00732     -0.33505   96185.00000
    -0.00732     -0.28356   96285.00000
    -0.00732     -0.26328   96386.00000
    -0.00732     -0.24469   96485.00000
     8.99414    -22.18291   97372.00000
     8.99414    -22.95476   97472.00000
     8.99414    -23.00636   97573.00000
     8.99414    -22.82836   97672.00000
     8.99414    -22.56245   97772.00000
     8.99414    -22.46608   97873.00000
     8.99414    -22.38439   97972.00000
     8.99414    -22.31236   98072.00000
     8.99414    -22.24753   98173.00000
     8.99414    -22.19134   98272.00000
    -8.98926     22.06967  100164.00000
    -8.98926     22.66657  100265.00000
    -8.98926     22.66295  100364.00000
    -8.98926     22.50183  100464.00000
    -8.98926     22.37453  100565.00000
    -8.98926     22.27463  100665.00000
    -8.98926     22.11886  100764.00000
    -8.98926     22.05575  100865.00000
    -8.98926     22.00094  100964.00000
    -8.98926     21.95142  101064.00000
    -0.00488     -0.05134  102191.00000
    -0.00488     -0.52894  102292.00000
    -0.00488     -0.60205  102393.00000
    -0.00488     -0.53673  102492.00000
    -0.00488     -0.47235  102591.00000
    -0.00488     -0.38566  102693.00000
    -0.00488     -0.35432  102792.00000
    -0.00488     -0.32787  102892.00000
    -0.00488     -0.30537  102993.00000
    -0.00488     -0.28448  103092.00000
     9.48975    -22.69439  103973.00000
     9.48975    -24.08671  104074.00000
     9.48975    -24.25523  104174.00000
     9.48975    -24.06771  104275.00000
     9.48975    -23.92891  104374.00000
     9.48975    -23.81793  104474.00000
     9.48975    -23.72254  104575.00000
     9.48975    -23.63760  104674.00000
     9.48975    -23.56458  104774.00000
     9.48975    -23.49926  104875.00000
    -9.48975     22.30359  106784.00000
    -9.48975     23.72301  106883.00000
    -9.48975     23.99186  106983.00000
    -9.48975     23.82283  107084.00000
    -9.48975     23.69610  107183.00000
    -9.48975     23.59376  107283.00000
    -9.48975     23.50953  107384.00000
    -9.48975     23.43659  107483.00000
    -9.48975     23.37121  107583.00000
    -9.48975     23.25785  107684.00000
    -0.00732     -0.32860  108833.00000
    -0.00732     -0.62274  108934.00000
    -0.00732     -0.61961  109034.00000
    -0.00732     -0.54769  109134.00000
    -0.00732     -0.48929  109234.00000
    -0.00732     -0.44266  109334.00000
    -0.00732     -0.40473  109435.00000
    -0.00732     -0.34986  109534.00000
    -0.00732     -0.32703  109634.00000
    -0.00732     -0.30669  109735.00000
     9.99268    -24.14536  110644.00000
     9.99268    -25.47286  110745.00000
     9.99268    -25.61434  110846.00000
     9.99268    -25.41573  110945.00000
     9.99268    -25.26760  111045.00000
     9.99268    -25.14833  111146.00000
     9.99268    -25.04529  111245.00000
     9.99268    -24.95528  111345.00000
     9.99268    -24.87655  111446.00000
     9.99268    -24.74483  111545.00000
    -9.99268     24.19926  113521.00000
    -9.99268     25.33082  113623.00000
    -9.99268     25.54289  113722.00000
    -9.99268     25.20855  113822.00000
    -9.99268     25.08163  113923.00000
    -9.99268     24.97673  114022.00000
    -9.99268     24.88818  114123.00000
    -9.99268     24.80991  114222.00000
    -9.99268     24.74267  114322.00000
    -9.99268     24.68232  114423.00000
    -0.00732     -0.33478  115614.00000
    -0.00732     -0.64192  115716.00000
    -0.00732     -0.65951  115815.00000
    -0.00732     -0.58984  115916.00000
    -0.00732     -0.47918  116015.00000
    -0.00732     -0.44079  116115.00000
    -0.00732     -0.40856  116216.00000
    -0.00732     -0.38077  116315.00000
    -0.00732     -0.35694  116415.00000
    -0.00732     -0.33624  116516.00000
    10.48828    -26.29502  117456.00000
    10.48828    -27.09430  117556.00000
    10.48828    -27.11821  117656.00000
    10.48828    -26.89346  117757.00000
    10.48828    -26.56072  117856.00000
    10.48828    -26.44147  117956.00000
    10.48828    -26.33857  118057.00000
    10.48828    -26.24745  118156.00000
    10.48828    -26.16713  118256.00000
    10.48828    -26.09557  118357.00000
   -10.49072     26.04559  120350.00000
   -10.49072     26.92403  120452.00000
   -10.49072     27.00105  120551.00000
   -10.49072     26.80592  120652.00000
   -10.49072     26.50831  120751.00000
   -10.49072     26.40074  120851.00000
   -10.49072     26.30954  120952.00000
   -10.49072     26.23014  121051.00000
   -10.49072     26.15898  121151.00000
   -10.49072     26.09547  121252.00000
    -0.00488     -0.37444  122425.00000
    -0.00488     -0.69317  122526.00000
    -0.00488     -0.70336  122627.00000
    -0.00488     -0.62442  122726.00000
    -0.00488     -0.55939  122826.00000
    -0.00488     -0.51038  122926.00000
    -0.00488     -0.47008  123026.00000
    -0.00488     -0.40927  123127.00000
    -0.00488     -0.38425  123226.00000
    -0.00488     -0.36294  123326.00000
    10.99121    -27.89371  124274.00000
    10.99121    -28.57739  124375.00000
    10.99121    -28.50196  124474.00000
    10.99121    -28.24577  124574.00000
    10.99121    -28.05034  124675.00000
    10.99121    -27.89798  124774.00000
    10.99121    -27.66303  124875.00000
    10.99121    -27.56828  124974.00000
    10.99121    -27.48165  125074.00000
    10.99121    -27.40370  125175.00000
   -10.99121     26.94991  127211.00000
   -10.99121     28.33036  127313.00000
   -10.99121     28.45717  127412.00000
   -10.99121     28.25696  127512.00000
   -10.99121     28.10706  127613.00000
   -10.99121     27.98419  127712.00000
   -10.99121     27.88034  127812.00000
   -10.99121     27.79173  127913.00000
   -10.99121     27.71212  128012.00000
   -10.99121     27.57715  128112.00000
    -0.00732     -0.11142  129330.00000
    -0.00732     -0.74328  129431.00000
    -0.00732     -0.69204  129532.00000
    -0.00732     -0.61764  129631.00000
    -0.00732     -0.55950  129731.00000
    -0.00732     -0.51374  129832.00000
    -0.00732     -0.47735  129931.00000
    -0.00732     -0.44617  130031.00000
    -0.00732     -0.39619  130132.00000
    -0.00732     -0.37571  130231.00000
    10.99121    -25.97257  131179.00000
    10.99121    -28.05162  131280.00000
    10.99121    -27.91046  131379.00000
    10.99121    -27.68177  131479.00000
    10.99121    -27.51266  131580.00000
    10.99121    -27.37798  131679.00000
    10.99121    -27.26314  131779.00000
    10.99121    -27.16546  131880.00000
    10.99121    -27.00253  131979.00000
    10.99121    -26.93375  132079.00000
   -10.99121     26.93118  134117.00000
   -10.99121     28.02563  134218.00000
   -10.99121     28.17770  134317.00000
   -10.99121     27.98227  134417.00000
   -10.99121     27.67681  134518.00000
   -10.99121     27.56872  134617.00000
   -10.99121     27.47757  134717.00000
   -10.99121     27.39731  134818.00000
   -10.99121     27.32534  134917.00000
   -10.99121     27.26053  135017.00000
    -0.00488     -0.31658  136229.00000
    -0.00488     -0.69044  136330.00000
    -0.00488     -0.74131  136430.00000
    -0.00488     -0.60310  136531.00000
    -0.00488     -0.54910  136630.00000
    -0.00488     -0.50749  136730.00000
    -0.00488     -0.47164  136831.00000
    -0.00488     -0.44158  136930.00000
    -0.00488     -0.41575  137030.00000
    -0.00488     -0.39209  137131.00000
    10.49072    -24.65930  138071.00000
    10.49072    -25.59114  138172.00000
    10.49072    -25.71468  138273.00000
    10.49072    -25.36180  138372.00000
    10.49072    -25.23162  138472.00000
    10.49072    -25.12423  138573.00000
    10.49072    -25.03419  138672.00000
    10.49072    -24.95520  138772.00000
    10.49072    -24.88590  138873.00000
    10.49072    -24.82320  138972.00000
   -10.49072     24.62429  140967.00000
   -10.49072     25.65036  141068.00000
   -10.49072     25.83539  141168.00000
   -10.49072     25.52847  141269.00000
   -10.49072     25.41371  141368.00000
   -10.49072     25.32053  141468.00000
   -10.49072     25.24005  141569.00000
   -10.49072     25.16979  141668.00000
   -10.49072     25.10808  141768.00000
   -10.49072     25.05424  141869.00000
    -0.00488     -0.34762  143042.00000
    -0.00488     -0.69636  143144.00000
    -0.00488     -0.72427  143243.00000
    -0.00488     -0.64819  143343.00000
    -0.00488     -0.58162  143444.00000
    -0.00488     -0.52992  143543.00000
    -0.00488     -0.45373  143643.00000
    -0.00488     -0.42458  143744.00000
    -0.00488     -0.39965  143843.00000
    -0.00488     -0.37952  143943.00000
     9.99268    -21.85716  144854.00000
     9.99268    -23.74148  144955.00000
     9.99268    -23.64808  145056.00000
     9.99268    -23.47265  145155.00000
     9.99268    -23.34251  145255.00000
     9.99268    -23.23653  145356.00000
     9.99268    -23.14938  145455.00000
     9.99268    -23.07377  145555.00000
     9.99268    -22.94820  145656.00000
     9.99268    -22.89587  145755.00000
    -9.99268     22.19507  147732.00000
    -9.99268     23.47279  147833.00000
    -9.99268     23.70539  147932.00000
    -9.99268     23.55637  148032.00000
    -9.99268     23.44553  148133.00000
    -9.99268     23.35530  148232.00000
    -9.99268     23.27976  148332.00000
    -9.99268     23.21531  148433.00000
    -9.99268     23.15795  148532.00000
    -9.99268     23.06027  148632.00000
    -0.00488     -0.33889  149819.00000
    -0.00488     -0.66119  149920.00000
    -0.00488     -0.69163  150019.00000
    -0.00488     -0.62431  150119.00000
    -0.00488     -0.50933  150220.00000
    -0.00488     -0.47013  150319.00000
    -0.00488     -0.43644  150419.00000
    -0.00488     -0.40835  150520.00000
    -0.00488     -0.38403  150619.00000
    -0.00488     -0.36302  150719.00000
     9.49219    -19.99577  151600.00000
     9.49219    -21.93199  151701.00000
     9.49219    -21.83970  151802.00000
     9.49219    -21.67251  151901.00000
     9.49219    -21.55207  152001.00000
     9.49219    -21.45517  152102.00000
     9.49219    -21.37523  152201.00000
     9.49219    -21.30639  152301.00000
     9.49219    -21.19166  152402.00000
     9.49219    -21.14257  152501.00000
    -9.49219     19.91033  154411.00000
    -9.49219     21.94999  154511.00000
    -9.49219     21.89417  154611.00000
    -9.49219     21.74640  154712.00000
    -9.49219     21.63753  154811.00000
    -9.49219     21.55038  154912.00000
    -9.49219     21.47814  155011.00000
    -9.49219     21.41657  155111.00000
    -9.49219     21.31197  155212.00000
    -9.49219     21.26950  155311.00000
    -0.00488     -0.34621  156461.00000
    -0.00488     -0.65168  156562.00000
    -0.00488     -0.66240  156663.00000
    -0.00488     -0.59046  156762.00000
    -0.00488     -0.52935  156862.00000
    -0.00488     -0.44533  156963.00000
    -0.00488     -0.41372  157062.00000
    -0.00488     -0.38671  157162.00000
    -0.00488     -0.36310  157263.00000
    -0.00488     -0.34373  157362.00000
     8.99414    -19.07090  158248.00000
     8.99414    -20.01171  158349.00000
     8.99414    -20.19593  158449.00000
     8.99414    -19.93307  158550.00000
     8.99414    -19.83101  158649.00000
     8.99414    -19.75023  158749.00000
     8.99414    -19.68150  158850.00000
     8.99414    -19.62199  158949.00000
     8.99414    -19.56850  159050.00000
     8.99414    -19.52079  159149.00000
    -8.98926     19.32807  161040.00000
    -8.98926     20.11227  161142.00000
    -8.98926     20.22924  161241.00000
    -8.98926     20.10562  161341.00000
    -8.98926     19.90355  161442.00000
    -8.98926     19.83179  161541.00000
    -8.98926     19.77082  161642.00000
    -8.98926     19.71827  161742.00000
    -8.98926     19.67105  161841.00000
    -8.98926     19.62923  161941.00000
    -0.00488     -0.04159  163068.00000
    -0.00488     -0.54842  163168.00000
    -0.00488     -0.65848  163268.00000
    -0.00488     -0.53259  163369.00000
    -0.00488     -0.48178  163468.00000
    -0.00488     -0.44123  163568.00000
    -0.00488     -0.40943  163669.00000
    -0.00488     -0.38233  163768.00000
    -0.00488     -0.35715  163868.00000
    -0.00488     -0.33611  163969.00000
     8.49365    -17.37401  164818.00000
     8.49365    -18.37820  164919.00000
     8.49365    -18.59403  165019.00000
     8.49365    -18.34813  165120.00000
     8.49365    -18.25426  165219.00000
     8.49365    -18.17675  165319.00000
     8.49365    -18.11153  165420.00000
     8.49365    -18.05591  165519.00000
     8.49365    -18.00707  165619.00000
     8.49365    -17.96406  165720.00000
    -8.49121     16.91984  167568.00000
    -8.49121     18.65822  167669.00000
    -8.49121     18.61783  167768.00000
    -8.49121     18.49153  167868.00000
    -8.49121     18.39685  167969.00000
    -8.49121     18.32183  168068.00000
    -8.49121     18.26004  168168.00000
    -8.49121     18.20671  168269.00000
    -8.49121     18.11918  168368.00000
    -8.49121     18.08166  168468.00000
    -0.00488      0.18315  169587.00000
    -0.00488     -0.61593  169689.00000
    -0.00488     -0.58703  169788.00000
    -0.00488     -0.51995  169889.00000
    -0.00488     -0.46624  169988.00000
    -0.00488     -0.42569  170088.00000
    -0.00488     -0.39192  170189.00000
    -0.00488     -0.36383  170288.00000
    -0.00488     -0.32176  170388.00000
    -0.00488     -0.30418  170489.00000
     7.99316    -15.70792  171313.00000
     7.99316    -16.78951  171413.00000
     7.99316    -17.07298  171514.00000
     7.99316    -16.85697  171613.00000
     7.99316    -16.76725  171713.00000
     7.99316    -16.69579  171814.00000
     7.99316    -16.63490  171913.00000
     7.99316    -16.58173  172013.00000
     7.99316    -16.53654  172114.00000
     7.99316    -16.49637  172213.00000
    -7.99072     16.18502  174018.00000
    -7.99072     17.04149  174120.00000
    -7.99072     17.20882  174219.00000
    -7.99072     17.10697  174319.00000
    -7.99072     16.92543  174420.00000
    -7.99072     16.86070  174519.00000
    -7.99072     16.80664  174619.00000
    -7.99072     16.75980  174720.00000
    -7.99072     16.71825  174819.00000
    -7.99072     16.68248  174919.00000
    -0.00732     -0.22794  176021.00000
    -0.00732     -0.55199  176123.00000
    -0.00732     -0.57679  176222.00000
    -0.00732     -0.51255  176322.00000
    -0.00732     -0.45649  176423.00000
    -0.00732     -0.38131  176522.00000
    -0.00732     -0.35356  176622.00000
    -0.00732     -0.32960  176723.00000
    -0.00732     -0.30866  176822.00000
    -0.00732     -0.29151  176921.00000
     7.49512    -14.13501  177735.00000
     7.49512    -15.64060  177836.00000
     7.49512    -15.58295  177935.00000
     7.49512    -15.46443  178035.00000
     7.49512    -15.37777  178135.00000
     7.49512    -15.30966  178235.00000
     7.49512    -15.25115  178336.00000
     7.49512    -15.20157  178435.00000
     7.49512    -15.12085  178535.00000
     7.49512    -15.08587  178636.00000
    -7.49268     15.05648  180410.00000
    -7.49268     15.74532  180510.00000
    -7.49268     15.83814  180611.00000
    -7.49268     15.73400  180710.00000
    -7.49268     15.64142  180811.00000
    -7.49268     15.51115  180910.00000
    -7.49268     15.46179  181010.00000
    -7.49268     15.41900  181111.00000
    -7.49268     15.38096  181210.00000
    -7.49268     15.34681  181310.00000
    -0.00732      0.27447  182393.00000
    -0.00732     -0.54907  182494.00000
    -0.00732     -0.52333  182594.00000
    -0.00732     -0.46111  182695.00000
    -0.00732     -0.41321  182794.00000
    -0.00732     -0.37490  182894.00000
    -0.00732     -0.34330  182995.00000
    -0.00732     -0.31690  183094.00000
    -0.00732     -0.27765  183194.00000
    -0.00732     -0.26068  183295.00000
     6.99463    -13.61723  184082.00000
     6.99463    -14.22945  184184.00000
     6.99463    -14.27922  184283.00000
     6.99463    -14.16794  184383.00000
     6.99463    -14.07676  184484.00000
     6.99463    -14.00817  184583.00000
     6.99463    -13.90138  184683.00000
     6.99463    -13.85980  184784.00000
     6.99463    -13.82395  184883.00000
     6.99463    -13.79135  184983.00000
    -6.99219     13.92370  186711.00000
    -6.99219     14.48802  186811.00000
    -6.99219     14.52992  186912.00000
    -6.99219     14.42897  187011.00000
    -6.99219     14.34679  187111.00000
    -6.99219     14.28206  187212.00000
    -6.99219     14.18345  187311.00000
    -6.99219     14.14396  187411.00000
    -6.99219     14.10903  187512.00000
    -6.99219     14.07677  187611.00000
    -0.00732      0.01566  188676.00000
    -0.00732     -0.43501  188776.00000
    -0.00732     -0.51719  188877.00000
    -0.00732     -0.41294  188976.00000
    -0.00732     -0.37031  189076.00000
    -0.00732     -0.33743  189177.00000
    -0.00732     -0.31082  189276.00000
    -0.00732     -0.28656  189376.00000
    -0.00732     -0.26706  189477.00000
    -0.00732     -0.24977  189576.00000
     6.49414    -11.89379  190359.00000
     6.49414    -12.77903  190460.00000
     6.49414    -12.94679  190559.00000
     6.49414    -12.84965  190659.00000
     6.49414    -12.77795  190760.00000
     6.49414    -12.72089  190859.00000
     6.49414    -12.67440  190959.00000
     6.49414    -12.63368  191060.00000
     6.49414    -12.59727  191159.00000
     6.49414    -12.53686  191259.00000
    -6.49170     12.79889  192949.00000
    -6.49170     13.26936  193050.00000
    -6.49170     13.29643  193151.00000
    -6.49170     13.20328  193250.00000
    -6.49170     13.12686  193350.00000
    -6.49170     13.01650  193451.00000
    -6.49170     12.97554  193550.00000
    -6.49170     12.93913  193650.00000
    -6.49170     12.90660  193751.00000
    -6.49170     12.87696  193850.00000
    -0.00732     -0.01698  194878.00000
    -0.00732     -0.42850  194979.00000
    -0.00732     -0.48334  195079.00000
    -0.00732     -0.42702  195179.00000
    -0.00732     -0.37515  195280.00000
    -0.00732     -0.30493  195379.00000
    -0.00732     -0.27943  195479.00000
    -0.00732     -0.25720  195580.00000
    -0.00732     -0.23969  195679.00000
    -0.00732     -0.22486  195779.00000
     5.99365    -11.26087  196532.00000
     5.99365    -11.75517  196632.00000
     5.99365    -11.78513  196733.00000
     5.99365    -11.69088  196832.00000
     5.99365    -11.61556  196932.00000
     5.99365    -11.55596  197033.00000
     5.99365    -11.46862  197132.00000
     5.99365    -11.43320  197232.00000
     5.99365    -11.40227  197333.00000
     5.99365    -11.37453  197432.00000
    -5.99121     10.79992  199055.00000
    -5.99121     12.14304  199155.00000
    -5.99121     12.11683  199256.00000
    -5.99121     12.02819  199355.00000
    -5.99121     11.96028  199456.00000
    -5.99121     11.90760  199555.00000
    -5.99121     11.86402  199655.00000
    -5.99121     11.82650  199756.00000
    -5.99121     11.76309  199855.00000
    -5.99121     11.73764  199955.00000
    -0.00732      0.29975  200946.00000
    -0.00732     -0.30537  201048.00000
    -0.00732     -0.45287  201147.00000
    -0.00732     -0.41200  201246.00000
    -0.00732     -0.31931  201347.00000
    -0.00732     -0.28845  201447.00000
    -0.00732     -0.26325  201548.00000
    -0.00732     -0.24180  201647.00000
    -0.00732     -0.22318  201747.00000
    -0.00732     -0.20870  201848.00000
     5.49072    -10.20938  202567.00000
     5.49072    -10.62058  202669.00000
     5.49072    -10.61664  202768.00000
     5.49072    -10.52841  202869.00000
     5.49072    -10.46214  202968.00000
     5.49072    -10.40986  203068.00000
     5.49072    -10.36785  203169.00000
     5.49072    -10.29837  203268.00000
     5.49072    -10.26973  203368.00000
     5.49072    -10.24472  203469.00000
    -5.49072     10.46020  205036.00000
    -5.49072     10.99091  205137.00000
    -5.49072     11.03962  205236.00000
    -5.49072     10.95636  205336.00000
    -5.49072     10.88674  205437.00000
    -5.49072     10.83341  205536.00000
    -5.49072     10.75150  205636.00000
    -5.49072     10.71949  205737.00000
    -5.49072     10.69183  205836.00000
    -5.49072     10.66633  205936.00000
    -0.00732      0.31329  206915.00000
    -0.00732     -0.27162  207017.00000
    -0.00732     -0.41021  207116.00000
    -0.00732     -0.32128  207216.00000
    -0.00732     -0.28362  207317.00000
    -0.00732     -0.25479  207416.00000
    -0.00732     -0.23167  207516.00000
    -0.00732     -0.21170  207617.00000
    -0.00732     -0.19460  207716.00000
    -0.00732     -0.17996  207816.00000
     4.99268     -8.29886  208520.00000
     4.99268     -9.53902  208620.00000
     4.99268     -9.50849  208721.00000
     4.99268     -9.43010  208820.00000
     4.99268     -9.37228  208920.00000
     4.99268     -9.32639  209021.00000
     4.99268     -9.28937  209120.00000
     4.99268     -9.25612  209220.00000
     4.99268     -9.20203  209321.00000
     4.99268     -9.18020  209420.00000
    -4.99268      9.08071  210951.00000
    -4.99268      9.81802  211052.00000
    -4.99268      9.98389  211153.00000
    -4.99268      9.85130  211252.00000
    -4.99268      9.79740  211352.00000
    -4.99268      9.75361  211453.00000
    -4.99268      9.71757  211552.00000
    -4.99268      9.68640  211652.00000
    -4.99268      9.65903  211753.00000
    -4.99268      9.63463  211852.00000
    -0.00732      0.55375  212801.00000
    -0.00732     -0.15675  212903.00000
    -0.00732     -0.34340  213002.00000
    -0.00732     -0.29361  213102.00000
    -0.00732     -0.25639  213203.00000
    -0.00732     -0.22734  213302.00000
    -0.00732     -0.20376  213402.00000
    -0.00732     -0.18423  213503.00000
    -0.00732     -0.16826  213602.00000
    -0.00732     -0.14222  213702.00000
     4.49463     -7.47340  214381.00000
     4.49463     -8.27732  214482.00000
     4.49463     -8.44528  214581.00000
     4.49463     -8.37566  214681.00000
     4.49463     -8.32368  214782.00000
     4.49463     -8.28194  214881.00000
     4.49463     -8.24828  214981.00000
     4.49463     -8.22048  215082.00000
     4.49463     -8.19506  215181.00000
     4.49463     -8.15149  215281.00000
    -4.49219      7.82682  216758.00000
    -4.49219      8.68124  216858.00000
    -4.49219      8.89771  216959.00000
    -4.49219      8.82871  217058.00000
    -4.49219      8.77595  217158.00000
    -4.49219      8.73321  217259.00000
    -4.49219      8.69888  217358.00000
    -4.49219      8.67062  217458.00000
    -4.49219      8.64377  217559.00000
    -4.49219      8.59895  217658.00000
    -0.00732      0.54227  218577.00000
    -0.00732     -0.14157  218677.00000
    -0.00732     -0.32430  218777.00000
    -0.00732     -0.25001  218878.00000
    -0.00732     -0.21651  218977.00000
    -0.00732     -0.19082  219077.00000
    -0.00732     -0.16986  219178.00000
    -0.00732     -0.15103  219277.00000
    -0.00732     -0.13687  219377.00000
    -0.00732     -0.12442  219478.00000
     3.99414     -6.91826  220114.00000
     3.99414     -7.41259  220214.00000
     3.99414     -7.45460  220314.00000
     3.99414     -7.38339  220415.00000
     3.99414     -7.32909  220514.00000
     3.99414     -7.28927  220614.00000
     3.99414     -7.25582  220715.00000
     3.99414     -7.20265  220814.00000
     3.99414     -7.18048  220914.00000
     3.99414     -7.16083  221015.00000
    -3.99170      7.08047  222423.00000
    -3.99170      7.78138  222524.00000
    -3.99170      7.93037  222625.00000
    -3.99170      7.87175  222724.00000
    -3.99170      7.76560  222824.00000
    -3.99170      7.72892  222925.00000
    -3.99170      7.69853  223024.00000
    -3.99170      7.67232  223124.00000
    -3.99170      7.64893  223225.00000
    -3.99170      7.62807  223324.00000
    -0.00732      0.07074  224225.00000
    -0.00732     -0.24993  224325.00000
    -0.00732     -0.26641  224426.00000
    -0.00732     -0.22210  224525.00000
    -0.00732     -0.18785  224625.00000
    -0.00732     -0.16143  224726.00000
    -0.00732     -0.14179  224825.00000
    -0.00732     -0.12444  224925.00000
    -0.00732     -0.09756  225026.00000
    -0.00732     -0.08678  225125.00000
     3.49365     -5.83700  225738.00000
     3.49365     -6.37769  225837.00000
     3.49365     -6.45238  225937.00000
     3.49365     -6.39217  226038.00000
     3.49365     -6.34205  226137.00000
     3.49365     -6.30391  226237.00000
     3.49365     -6.24745  226338.00000
     3.49365     -6.22470  226437.00000
     3.49365     -6.20498  226537.00000
     3.49365     -6.18790  226638.00000
    -3.49365      6.44961  228004.00000
    -3.49365      6.88763  228104.00000
    -3.49365      6.92030  228204.00000
    -3.49365      6.85884  228305.00000
    -3.49365      6.81099  228404.00000
    -3.49365      6.77390  228504.00000
    -3.49365      6.74275  228605.00000
    -3.49365      6.69455  228704.00000
    -3.49365      6.67416  228804.00000
    -3.49365      6.65644  228905.00000
    -0.00732      0.35481  229786.00000
    -0.00732     -0.13687  229887.00000
    -0.00732     -0.22721  229986.00000
    -0.00732     -0.19290  230086.00000
    -0.00732     -0.13187  230187.00000
    -0.00732     -0.11221  230286.00000
    -0.00732     -0.09497  230386.00000
    -0.00732     -0.08149  230487.00000
    -0.00732     -0.07052  230586.00000
    -0.00732     -0.05985  230686.00000
     2.99072     -4.78067  231262.00000
     2.99072     -5.37136  231363.00000
     2.99072     -5.46778  231464.00000
     2.99072     -5.41232  231563.00000
     2.99072     -5.36604  231663.00000
     2.99072     -5.33349  231764.00000
     2.99072     -5.28238  231863.00000
     2.99072     -5.26166  231963.00000
     2.99072     -5.24401  232064.00000
     2.99072     -5.22845  232163.00000
    -2.99072      5.30877  233451.00000
    -2.99072      5.87115  233552.00000
    -2.99072      5.95377  233651.00000
    -2.99072      5.89928  233751.00000
    -2.99072      5.85411  233852.00000
    -2.99072      5.81766  233951.00000
    -2.99072      5.76577  234051.00000
    -2.99072      5.74580  234152.00000
    -2.99072      5.72773  234251.00000
    -2.99072      5.71087  234351.00000
    -0.00732      0.25736  235190.00000
    -0.00732     -0.13090  235291.00000
    -0.00732     -0.17180  235391.00000
    -0.00732     -0.13611  235491.00000
    -0.00732     -0.10748  235591.00000
    -0.00732     -0.08619  235692.00000
    -0.00732     -0.06928  235791.00000
    -0.00732     -0.04170  235891.00000
    -0.00732     -0.03216  235992.00000
    -0.00732     -0.02376  236091.00000
     2.49512     -3.57822  236624.00000
     2.49512     -4.32714  236725.00000
     2.49512     -4.50949  236825.00000
     2.49512     -4.47100  236926.00000
     2.49512     -4.42561  237025.00000
     2.49512     -4.36885  237125.00000
     2.49512     -4.34724  237226.00000
     2.49512     -4.32917  237325.00000
     2.49512     -4.31379  237425.00000
     2.49512     -4.30091  237526.00000
    -2.49268      3.84554  238745.00000
    -2.49268      4.72308  238846.00000
    -2.49268      4.99075  238945.00000
    -2.49268      4.92094  239045.00000
    -2.49268      4.88547  239146.00000
    -2.49268      4.85662  239245.00000
    -2.49268      4.83452  239345.00000
    -2.49268      4.81475  239446.00000
    -2.49268      4.79889  239545.00000
    -2.49268      4.78543  239645.00000
    -0.00732      1.39555  240442.00000
    -0.00732     -0.07771  240542.00000
    -0.00732     -0.12018  240643.00000
    -0.00732     -0.08654  240742.00000
    -0.00732     -0.06142  240843.00000
    -0.00732     -0.04353  240942.00000
    -0.00732     -0.02894  241042.00000
    -0.00732     -0.01657  241143.00000
    -0.00732      0.00223  241242.00000
    -0.00732      0.00953  241342.00000
     1.99463     -2.06839  241845.00000
     1.99463     -3.52195  241945.00000
     1.99463     -3.55550  242046.00000
     1.99463     -3.51128  242145.00000
     1.99463     -3.48021  242245.00000
     1.99463     -3.45711  242346.00000
     1.99463     -3.43639  242445.00000
     1.99463     -3.41924  242545.00000
     1.99463     -3.39427  242646.00000
     1.99463     -3.38190  242745.00000
    -1.99219      3.34868  243886.00000
    -1.99219      3.92910  243987.00000
    -1.99219      4.03230  244088.00000
    -1.99219      3.99253  244187.00000
    -1.99219      3.95782  244287.00000
    -1.99219      3.93007  244388.00000
    -1.99219      3.89006  244487.00000
    -1.99219      3.87412  244587.00000
    -1.99219      3.86132  244688.00000
    -1.99219      3.85041  244787.00000
    -0.00732      0.58174  245553.00000
    -0.00732      0.03643  245654.00000
    -0.00732     -0.06693  245755.00000
    -0.00732     -0.04329  245854.00000
    -0.00732     -0.01973  245954.00000
    -0.00732     -0.00271  246055.00000
    -0.00732      0.02022  246154.00000
    -0.00732      0.02865  246254.00000
    -0.00732      0.03676  246355.00000
    -0.00732      0.04311  246454.00000
     1.49170     -1.40521  246913.00000
     1.49170     -2.29886  247014.00000
     1.49170     -2.62561  247115.00000
     1.49170     -2.58916  247214.00000
     1.49170     -2.56460  247314.00000
     1.49170     -2.54629  247415.00000
     1.49170     -2.53162  247514.00000
     1.49170     -2.51873  247614.00000
     1.49170     -2.50677  247715.00000
     1.49170     -2.48788  247814.00000
    -1.49414      1.57704  248865.00000
    -1.49414      3.02946  248965.00000
    -1.49414      3.08260  249065.00000
    -1.49414      3.04702  249166.00000
    -1.49414      3.02004  249265.00000
    -1.49414      2.99850  249365.00000
    -1.49414      2.98057  249466.00000
    -1.49414      2.96671  249565.00000
    -1.49414      2.94296  249665.00000
    -1.49414      2.93377  249766.00000
    -0.00732      0.97170  250482.00000
    -0.00732      0.20555  250583.00000
    -0.00732      0.00056  250682.00000
    -0.00732      0.00439  250782.00000
    -0.00732      0.04181  250883.00000
    -0.00732      0.05364  250982.00000
    -0.00732      0.06237  251083.00000
    -0.00732      0.06888  251182.00000
    -0.00732      0.07501  251282.00000
    -0.00732      0.07982  251383.00000
     0.99365     -0.91110  251781.00000
     0.99365     -1.56107  251881.00000
     0.99365     -1.72659  251982.00000
     0.99365     -1.70787  252081.00000
     0.99365     -1.68350  252181.00000
     0.99365     -1.66761  252282.00000
     0.99365     -1.64273  252381.00000
     0.99365     -1.63371  252481.00000
     0.99365     -1.62796  252582.00000
     0.99365     -1.62126  252681.00000
    -0.99121      1.32736  253627.00000
    -0.99121      1.97735  253729.00000
    -0.99121      2.14741  253828.00000
    -0.99121      2.12904  253928.00000
    -0.99121      2.10354  254029.00000
    -0.99121      2.07371  254128.00000
    -0.99121      2.06153  254228.00000
    -0.99121      2.05137  254329.00000
    -0.99121      2.04483  254428.00000
    -0.99121      2.03805  254528.00000
    -0.00732      0.82388  255197.00000
    -0.00732      0.20212  255297.00000
    -0.00732      0.06196  255398.00000
    -0.00732      0.07123  255497.00000
    -0.00732      0.08630  255597.00000
    -0.00732      0.09660  255698.00000
    -0.00732      0.10865  255797.00000
    -0.00732      0.11551  255897.00000
    -0.00732      0.11961  255998.00000
    -0.00732      0.12161  256097.00000
     0.49072     -0.13284  256435.00000
     0.49072     -0.60926  256536.00000
     0.49072     -0.80493  256637.00000
     0.49072     -0.80172  256736.00000
     0.49072     -0.78648  256836.00000
     0.49072     -0.76960  256937.00000
     0.49072     -0.76263  257036.00000
     0.49072     -0.75639  257136.00000
     0.49072     -0.75131  257237.00000
     0.49072     -0.74774  257336.00000
    -0.49072      0.28797  258154.00000
    -0.49072      1.10527  258255.00000
    -0.49072      1.18677  258354.00000
    -0.49072      1.17089  258454.00000
    -0.49072      1.15735  258555.00000
    -0.49072      1.14841  258654.00000
    -0.49072      1.14149  258754.00000
    -0.49072      1.13485  258855.00000
    -0.49072      1.12715  258954.00000
    -0.49072      1.12323  259054.00000
    -0.00732      0.71228  259656.00000
    -0.00732      0.26390  259757.00000
    -0.00732      0.13866  259856.00000
    -0.00732      0.14206  259957.00000
    -0.00732      0.15076  260056.00000
    -0.00732      0.15592  260156.00000
    -0.00732      0.15954  260257.00000
    -0.00732      0.16551  260356.00000
    -0.00732      0.16811  260456.00000
    -0.00732      0.16989  260557.00000