# Acquired on 01/02/2024 09:39:55 
# SPIDER: Tracking_GRPCNT1454A-1
# STATIC MEASUREMENT

# pos [mm]		 force [N]		 time [ms]
0.25000			-0.05558			230.00000
0.25000			-0.32940			332.00000
0.25000			-0.55356			431.00000
0.25000			-0.55024			530.00000
0.25000			-0.54006			632.00000
0.25000			-0.53217			731.00000
0.25000			-0.52629			831.00000
0.25000			-0.52118			932.00000
0.25000			-0.51684			1031.00000
0.25000			-0.51339			1131.00000
-0.25000			0.09809			1919.00000
-0.25000			0.37792			2020.00000
-0.25000			0.68339			2121.00000
-0.25000			0.66117			2220.00000
-0.25000			0.64697			2320.00000
-0.25000			0.63844			2421.00000
-0.25000			0.63188			2520.00000
-0.25000			0.62548			2620.00000
-0.25000			0.61987			2720.00000
-0.25000			0.61253			2820.00000
0.00244			0.54504			3397.00000
0.00244			0.29291			3498.00000
0.00244			0.05468			3598.00000
0.00244			0.03181			3699.00000
0.00244			0.03777			3798.00000
0.00244			0.04199			3898.00000
0.00244			0.04455			3999.00000
0.00244			0.04732			4098.00000
0.00244			0.05049			4198.00000
0.00244			0.05312			4299.00000
0.50000			-0.56570			4690.00000
0.50000			-1.02602			4790.00000
0.50000			-1.13556			4891.00000
0.50000			-1.10949			4990.00000
0.50000			-1.08494			5090.00000
0.50000			-1.06855			5190.00000
0.50000			-1.04693			5290.00000
0.50000			-1.03909			5390.00000
0.50000			-1.03288			5491.00000
0.50000			-1.02652			5590.00000
-0.50000			0.89864			6518.00000
-0.50000			1.26815			6619.00000
-0.50000			1.31902			6719.00000
-0.50000			1.27883			6820.00000
-0.50000			1.25488			6919.00000
-0.50000			1.23829			7019.00000
-0.50000			1.22592			7120.00000
-0.50000			1.20735			7219.00000
-0.50000			1.19966			7319.00000
-0.50000			1.19305			7420.00000
0.00244			0.81959			8063.00000
0.00244			0.25715			8163.00000
0.00244			0.00064			8264.00000
0.00244			0.00386			8363.00000
0.00244			0.01738			8463.00000
0.00244			0.02558			8564.00000
0.00244			0.03136			8663.00000
0.00244			0.03611			8762.00000
0.00244			0.03902			8864.00000
0.00244			0.04189			8963.00000
0.75000			-0.68318			9404.00000
0.75000			-1.65477			9505.00000
0.75000			-1.67355			9604.00000
0.75000			-1.63763			9704.00000
0.75000			-1.61272			9805.00000
0.75000			-1.59370			9904.00000
0.75000			-1.57864			10004.00000
0.75000			-1.56605			10105.00000
0.75000			-1.55685			10204.00000
0.75000			-1.53988			10304.00000
-0.75000			1.09500			11324.00000
-0.75000			1.71028			11425.00000
-0.75000			1.93315			11524.00000
-0.75000			1.87964			11624.00000
-0.75000			1.85435			11725.00000
-0.75000			1.83527			11824.00000
-0.75000			1.81894			11924.00000
-0.75000			1.80493			12025.00000
-0.75000			1.79302			12124.00000
-0.75000			1.78319			12224.00000
0.00244			1.01854			12924.00000
0.00244			-0.01366			13024.00000
0.00244			-0.04719			13125.00000
0.00244			-0.02366			13224.00000
0.00244			-0.00509			13324.00000
0.00244			0.00738			13425.00000
0.00244			0.01819			13524.00000
0.00244			0.02636			13624.00000
0.00244			0.03053			13725.00000
0.00244			0.03850			13824.00000
1.00000			-1.46815			14313.00000
1.00000			-2.03225			14414.00000
1.00000			-2.20131			14514.00000
1.00000			-2.14066			14614.00000
1.00000			-2.11376			14715.00000
1.00000			-2.09356			14814.00000
1.00000			-2.07762			14914.00000
1.00000			-2.06365			15015.00000
1.00000			-2.05072			15114.00000
1.00000			-2.04034			15215.00000
-1.00000			1.79988			16342.00000
-1.00000			2.37017			16443.00000
-1.00000			2.51005			16544.00000
-1.00000			2.46345			16643.00000
-1.00000			2.43396			16743.00000
-1.00000			2.41039			16844.00000
-1.00000			2.39101			16943.00000
-1.00000			2.37620			17043.00000
-1.00000			2.36316			17144.00000
-1.00000			2.35062			17243.00000
0.00244			0.55150			17991.00000
0.00244			0.05184			18092.00000
0.00244			-0.07343			18192.00000
0.00244			-0.05709			18293.00000
0.00244			-0.01245			18392.00000
0.00244			0.00122			18492.00000
0.00244			0.00969			18593.00000
0.00244			0.01806			18692.00000
0.00244			0.02540			18792.00000
0.00244			0.03209			18893.00000
1.25000			-1.99596			19425.00000
1.25000			-2.55845			19526.00000
1.25000			-2.72045			19625.00000
1.25000			-2.67541			19725.00000
1.25000			-2.64441			19826.00000
1.25000			-2.62124			19925.00000
1.25000			-2.60108			20025.00000
1.25000			-2.58477			20126.00000
1.25000			-2.57009			20225.00000
1.25000			-2.55762			20325.00000
-1.25000			2.39943			21534.00000
-1.25000			2.97864			21635.00000
-1.25000			3.13470			21735.00000
-1.25000			3.08353			21836.00000
-1.25000			3.04919			21935.00000
-1.25000			3.02293			22035.00000
-1.25000			3.00214			22136.00000
-1.25000			2.98352			22235.00000
-1.25000			2.96550			22335.00000
-1.25000			2.95273			22436.00000
0.00244			0.86172			23219.00000
0.00244			-0.07534			23319.00000
0.00244			-0.09271			23420.00000
0.00244			-0.06069			23519.00000
0.00244			-0.03522			23620.00000
0.00244			-0.01698			23719.00000
0.00244			-0.00511			23819.00000
0.00244			0.00547			23920.00000
0.00244			0.01449			24019.00000
0.00244			0.02721			24119.00000
1.50000			-2.69712			24682.00000
1.50000			-3.16046			24783.00000
1.50000			-3.27402			24882.00000
1.50000			-3.23325			24982.00000
1.50000			-3.15365			25082.00000
1.50000			-3.12892			25182.00000
1.50000			-3.10740			25282.00000
1.50000			-3.08873			25383.00000
1.50000			-3.07309			25482.00000
1.50000			-3.05977			25583.00000
-1.50000			3.38165			26845.00000
-1.50000			3.74458			26946.00000
-1.50000			3.77959			27047.00000
-1.50000			3.71640			27146.00000
-1.50000			3.67103			27247.00000
-1.50000			3.63778			27346.00000
-1.50000			3.61134			27446.00000
-1.50000			3.56956			27547.00000
-1.50000			3.55260			27646.00000
-1.50000			3.53767			27746.00000
0.00244			0.58800			28566.00000
0.00244			0.05051			28667.00000
0.00244			-0.11354			28767.00000
0.00244			-0.06815			28868.00000
0.00244			-0.04289			28967.00000
0.00244			-0.02381			29067.00000
0.00244			-0.01077			29168.00000
0.00244			-0.00074			29267.00000
0.00244			0.00967			29367.00000
0.00244			0.01630			29468.00000
1.75000			-3.12691			30059.00000
1.75000			-3.65250			30161.00000
1.75000			-3.81123			30260.00000
1.75000			-3.72731			30361.00000
1.75000			-3.68928			30460.00000
1.75000			-3.65944			30560.00000
1.75000			-3.63644			30661.00000
1.75000			-3.61641			30760.00000
1.75000			-3.59869			30860.00000
1.75000			-3.58180			30961.00000
-1.75000			4.06410			32296.00000
-1.75000			4.39351			32397.00000
-1.75000			4.41357			32498.00000
-1.75000			4.34835			32597.00000
-1.75000			4.29888			32697.00000
-1.75000			4.26367			32798.00000
-1.75000			4.23471			32897.00000
-1.75000			4.18738			32997.00000
-1.75000			4.16838			33098.00000
-1.75000			4.15245			33197.00000
0.00244			0.80735			34048.00000
0.00244			-0.11344			34149.00000
0.00244			-0.13644			34250.00000
0.00244			-0.09867			34349.00000
0.00244			-0.06813			34449.00000
0.00244			-0.04611			34550.00000
0.00244			-0.03083			34649.00000
0.00244			-0.01861			34749.00000
0.00244			0.00570			34850.00000
0.00244			0.01213			34949.00000
2.00000			-3.92680			35585.00000
2.00000			-4.29362			35686.00000
2.00000			-4.35694			35787.00000
2.00000			-4.30466			35886.00000
2.00000			-4.21784			35986.00000
2.00000			-4.18879			36087.00000
2.00000			-4.16451			36186.00000
2.00000			-4.14362			36286.00000
2.00000			-4.12509			36387.00000
2.00000			-4.10848			36486.00000
-2.00000			4.39721			37895.00000
-2.00000			4.93206			37996.00000
-2.00000			5.01727			38097.00000
-2.00000			4.95176			38196.00000
-2.00000			4.90725			38297.00000
-2.00000			4.87111			38396.00000
-2.00000			4.84228			38496.00000
-2.00000			4.81835			38597.00000
-2.00000			4.79603			38696.00000
-2.00000			4.77572			38796.00000
0.00244			0.08847			39684.00000
0.00244			-0.14087			39785.00000
0.00244			-0.15685			39886.00000
0.00244			-0.11679			39985.00000
0.00244			-0.08208			40085.00000
0.00244			-0.05797			40186.00000
0.00244			-0.04030			40285.00000
0.00244			-0.01617			40385.00000
0.00244			-0.00690			40486.00000
0.00244			0.00240			40585.00000
2.25000			-4.22772			41241.00000
2.25000			-4.75701			41340.00000
2.25000			-4.88347			41440.00000
2.25000			-4.82219			41541.00000
2.25000			-4.77863			41640.00000
2.25000			-4.74432			41740.00000
2.25000			-4.71695			41841.00000
2.25000			-4.69166			41940.00000
2.25000			-4.67100			42040.00000
2.25000			-4.65258			42141.00000
-2.25000			5.15601			43592.00000
-2.25000			5.63607			43693.00000
-2.25000			5.73457			43793.00000
-2.25000			5.66924			43894.00000
-2.25000			5.56184			43993.00000
-2.25000			5.52487			44093.00000
-2.25000			5.49292			44194.00000
-2.25000			5.46658			44293.00000
-2.25000			5.44212			44393.00000
-2.25000			5.42108			44494.00000
0.00244			0.08042			45411.00000
0.00244			-0.16170			45513.00000
0.00244			-0.17915			45612.00000
0.00244			-0.13677			45712.00000
0.00244			-0.10125			45813.00000
0.00244			-0.07645			45912.00000
0.00244			-0.05792			46012.00000
0.00244			-0.02884			46113.00000
0.00244			-0.01760			46212.00000
0.00244			-0.00745			46312.00000
2.50000			-5.15812			47004.00000
2.50000			-5.45338			47104.00000
2.50000			-5.47444			47205.00000
2.50000			-5.40874			47306.00000
2.50000			-5.35586			47405.00000
2.50000			-5.31677			47505.00000
2.50000			-5.25629			47606.00000
2.50000			-5.23169			47705.00000
2.50000			-5.20997			47805.00000
2.50000			-5.19228			47906.00000
-2.50000			5.69111			49424.00000
-2.50000			6.25326			49525.00000
-2.50000			6.35196			49624.00000
-2.50000			6.27331			49724.00000
-2.50000			6.22121			49825.00000
-2.50000			6.18059			49924.00000
-2.50000			6.14683			50024.00000
-2.50000			6.11690			50125.00000
-2.50000			6.09081			50224.00000
-2.50000			6.06718			50324.00000
0.00244			0.35361			51261.00000
0.00244			-0.08378			51363.00000
0.00244			-0.21004			51462.00000
0.00244			-0.14077			51562.00000
0.00244			-0.10807			51663.00000
0.00244			-0.08281			51762.00000
0.00244			-0.06476			51862.00000
0.00244			-0.04885			51963.00000
0.00244			-0.03553			52062.00000
0.00244			-0.02562			52162.00000
2.75000			-5.25999			52870.00000
2.75000			-6.06745			52971.00000
2.75000			-6.04998			53072.00000
2.75000			-5.98061			53171.00000
2.75000			-5.92838			53271.00000
2.75000			-5.88892			53372.00000
2.75000			-5.85514			53471.00000
2.75000			-5.82585			53572.00000
2.75000			-5.77810			53671.00000
2.75000			-5.75832			53771.00000
-2.75000			6.23807			55328.00000
-2.75000			6.88754			55428.00000
-2.75000			7.06627			55528.00000
-2.75000			6.98755			55629.00000
-2.75000			6.92997			55728.00000
-2.75000			6.88402			55828.00000
-2.75000			6.84531			55929.00000
-2.75000			6.81241			56028.00000
-2.75000			6.78484			56128.00000
-2.75000			6.73552			56229.00000
0.00244			0.00253			57189.00000
0.00244			-0.21348			57291.00000
0.00244			-0.22225			57390.00000
0.00244			-0.17372			57490.00000
0.00244			-0.13574			57591.00000
0.00244			-0.10719			57690.00000
0.00244			-0.08487			57790.00000
0.00244			-0.06659			57891.00000
0.00244			-0.04098			57990.00000
0.00244			-0.02846			58090.00000
3.00000			-6.10686			58818.00000
3.00000			-6.57282			58920.00000
3.00000			-6.67843			59019.00000
3.00000			-6.61529			59120.00000
3.00000			-6.49854			59219.00000
3.00000			-6.45883			59319.00000
3.00000			-6.42460			59420.00000
3.00000			-6.39531			59519.00000
3.00000			-6.37043			59619.00000
3.00000			-6.34766			59720.00000
-3.00000			7.46720			61329.00000
-3.00000			7.78815			61430.00000
-3.00000			7.77963			61529.00000
-3.00000			7.68447			61629.00000
-3.00000			7.61804			61730.00000
-3.00000			7.56942			61829.00000
-3.00000			7.52695			61929.00000
-3.00000			7.45971			62030.00000
-3.00000			7.43214			62129.00000
-3.00000			7.40673			62229.00000
0.00244			0.18906			63216.00000
0.00244			-0.17151			63316.00000
0.00244			-0.25576			63416.00000
0.00244			-0.21703			63517.00000
0.00244			-0.13705			63616.00000
0.00244			-0.11035			63715.00000
0.00244			-0.09047			63817.00000
0.00244			-0.07273			63916.00000
0.00244			-0.05812			64016.00000
0.00244			-0.04752			64117.00000
3.25000			-6.88082			64874.00000
3.25000			-7.24598			64975.00000
3.25000			-7.29464			65074.00000
3.25000			-7.22253			65174.00000
3.25000			-7.15841			65275.00000
3.25000			-7.06790			65374.00000
3.25000			-7.03354			65474.00000
3.25000			-7.00456			65575.00000
3.25000			-6.97835			65674.00000
3.25000			-6.95329			65775.00000
-3.25000			7.99911			67433.00000
-3.25000			8.46091			67535.00000
-3.25000			8.53949			67634.00000
-3.25000			8.45646			67734.00000
-3.25000			8.32121			67835.00000
-3.25000			8.27278			67934.00000
-3.25000			8.23201			68034.00000
-3.25000			8.19587			68135.00000
-3.25000			8.16535			68234.00000
-3.25000			8.13773			68335.00000
0.00244			-0.01318			69343.00000
0.00244			-0.25164			69445.00000
0.00244			-0.27056			69544.00000
0.00244			-0.21843			69644.00000
0.00244			-0.17555			69745.00000
0.00244			-0.14388			69844.00000
0.00244			-0.09861			69944.00000
0.00244			-0.08258			70045.00000
0.00244			-0.06870			70144.00000
0.00244			-0.05616			70244.00000
3.50000			-7.56246			71022.00000
3.50000			-7.88899			71121.00000
3.50000			-7.91995			71221.00000
3.50000			-7.84339			71322.00000
3.50000			-7.77789			71421.00000
3.50000			-7.72629			71521.00000
3.50000			-7.64749			71622.00000
3.50000			-7.61637			71721.00000
3.50000			-7.58915			71821.00000
3.50000			-7.56361			71922.00000
-3.50000			8.47770			73623.00000
-3.50000			9.09889			73724.00000
-3.50000			9.21594			73823.00000
-3.50000			9.12196			73924.00000
-3.50000			9.05548			74023.00000
-3.50000			9.00142			74123.00000
-3.50000			8.95700			74224.00000
-3.50000			8.91857			74323.00000
-3.50000			8.88359			74423.00000
-3.50000			8.82630			74524.00000
0.00244			0.24780			75569.00000
0.00244			-0.28886			75669.00000
0.00244			-0.26993			75770.00000
0.00244			-0.21962			75869.00000
0.00244			-0.17955			75969.00000
0.00244			-0.14713			76070.00000
0.00244			-0.12234			76169.00000
0.00244			-0.10648			76270.00000
0.00244			-0.07079			76369.00000
0.00244			-0.06458			76469.00000
3.75000			-8.19951			77282.00000
3.75000			-8.53863			77384.00000
3.75000			-8.58173			77483.00000
3.75000			-8.50731			77583.00000
3.75000			-8.43701			77684.00000
3.75000			-8.33697			77783.00000
3.75000			-8.29942			77883.00000
3.75000			-8.26558			77984.00000
3.75000			-8.23575			78083.00000
3.75000			-8.21039			78183.00000
-3.75000			9.34004			79953.00000
-3.75000			9.90505			80053.00000
-3.75000			9.98304			80154.00000
-3.75000			9.88956			80253.00000
-3.75000			9.82180			80353.00000
-3.75000			9.76673			80454.00000
-3.75000			9.71947			80553.00000
-3.75000			9.67946			80653.00000
-3.75000			9.64341			80754.00000
-3.75000			9.58279			80853.00000
0.00244			-0.11528			81923.00000
0.00244			-0.29990			82024.00000
0.00244			-0.30354			82125.00000
0.00244			-0.25081			82224.00000
0.00244			-0.20612			82324.00000
0.00244			-0.17324			82425.00000
0.00244			-0.12644			82524.00000
0.00244			-0.10879			82624.00000
0.00244			-0.09316			82725.00000
0.00244			-0.08022			82824.00000
4.00000			-8.53443			83643.00000
4.00000			-9.09984			83744.00000
4.00000			-9.21174			83843.00000
4.00000			-9.12797			83943.00000
4.00000			-9.06407			84044.00000
4.00000			-9.01164			84143.00000
4.00000			-8.96831			84243.00000
4.00000			-8.93186			84344.00000
4.00000			-8.89831			84443.00000
4.00000			-8.86900			84543.00000
-4.00000			10.44698			86319.00000
-4.00000			10.81214			86419.00000
-4.00000			10.81828			86521.00000
-4.00000			10.70459			86620.00000
-4.00000			10.62059			86720.00000
-4.00000			10.55647			86821.00000
-4.00000			10.45628			86920.00000
-4.00000			10.41559			87020.00000
-4.00000			10.38080			87120.00000
-4.00000			10.34835			87220.00000
0.00244			0.10604			88304.00000
0.00244			-0.24870			88404.00000
0.00244			-0.30065			88504.00000
0.00244			-0.24822			88605.00000
0.00244			-0.20775			88704.00000
0.00244			-0.17756			88804.00000
0.00244			-0.15132			88904.00000
0.00244			-0.13204			89004.00000
0.00244			-0.11425			89104.00000
0.00244			-0.09904			89205.00000
4.25000			-9.38952			90054.00000
4.25000			-9.84801			90154.00000
4.25000			-9.95139			90254.00000
4.25000			-9.80370			90355.00000
4.25000			-9.73955			90454.00000
4.25000			-9.68674			90554.00000
4.25000			-9.64142			90655.00000
4.25000			-9.60448			90754.00000
4.25000			-9.57145			90854.00000
4.25000			-9.54181			90955.00000
-4.25000			10.79342			92802.00000
-4.25000			11.64954			92902.00000
-4.25000			11.58939			93003.00000
-4.25000			11.48496			93102.00000
-4.25000			11.40734			93202.00000
-4.25000			11.34352			93303.00000
-4.25000			11.29006			93402.00000
-4.25000			11.24427			93502.00000
-4.25000			11.20410			93603.00000
-4.25000			11.13608			93702.00000
0.00244			0.02671			94803.00000
0.00244			-0.28685			94904.00000
0.00244			-0.35874			95005.00000
0.00244			-0.26413			95104.00000
0.00244			-0.22205			95204.00000
0.00244			-0.19033			95305.00000
0.00244			-0.16545			95404.00000
0.00244			-0.14604			95504.00000
0.00244			-0.12830			95605.00000
0.00244			-0.11181			95704.00000
4.50000			-10.04379			96559.00000
4.50000			-10.56408			96660.00000
4.50000			-10.67792			96761.00000
4.50000			-10.50848			96860.00000
4.50000			-10.44099			96960.00000
4.50000			-10.38499			97061.00000
4.50000			-10.33776			97160.00000
4.50000			-10.29803			97259.00000
4.50000			-10.26178			97361.00000
4.50000			-10.22946			97460.00000
-4.50000			11.45982			99315.00000
-4.50000			12.50675			99415.00000
-4.50000			12.44135			99516.00000
-4.50000			12.31997			99617.00000
-4.50000			12.23524			99716.00000
-4.50000			12.16757			99816.00000
-4.50000			12.10944			99917.00000
-4.50000			12.05975			100016.00000
-4.50000			11.97956			100116.00000
-4.50000			11.94465			100217.00000
0.00244			0.13039			101336.00000
0.00244			-0.37859			101436.00000
0.00244			-0.34959			101537.00000
0.00244			-0.29344			101636.00000
0.00244			-0.24915			101736.00000
0.00244			-0.21431			101837.00000
0.00244			-0.18681			101936.00000
0.00244			-0.16314			102035.00000
0.00244			-0.14371			102137.00000
0.00244			-0.11098			102236.00000
4.75000			-11.08998			103128.00000
4.75000			-11.37913			103229.00000
4.75000			-11.37717			103330.00000
4.75000			-11.27789			103429.00000
4.75000			-11.19582			103529.00000
4.75000			-11.13113			103630.00000
4.75000			-11.03406			103729.00000
4.75000			-10.99422			103829.00000
4.75000			-10.95842			103930.00000
4.75000			-10.92693			104029.00000
-4.75000			12.89908			105951.00000
-4.75000			13.30828			106053.00000
-4.75000			13.34367			106152.00000
-4.75000			13.23202			106252.00000
-4.75000			13.13278			106353.00000
-4.75000			12.99263			106452.00000
-4.75000			12.93799			106552.00000
-4.75000			12.89056			106653.00000
-4.75000			12.84841			106752.00000
-4.75000			12.81086			106852.00000
0.00244			-0.07102			108002.00000
0.00244			-0.34612			108104.00000
0.00244			-0.39724			108203.00000
0.00244			-0.29522			108303.00000
0.00244			-0.25307			108404.00000
0.00244			-0.22047			108503.00000
0.00244			-0.19262			108603.00000
0.00244			-0.17103			108704.00000
0.00244			-0.15361			108803.00000
0.00244			-0.13607			108903.00000
5.00000			-11.85977			109802.00000
5.00000			-12.14784			109903.00000
5.00000			-12.13243			110002.00000
5.00000			-12.02400			110102.00000
5.00000			-11.94025			110203.00000
5.00000			-11.87417			110302.00000
5.00000			-11.81880			110402.00000
5.00000			-11.72889			110503.00000
5.00000			-11.69166			110602.00000
5.00000			-11.65775			110703.00000
-5.00000			13.76596			112635.00000
-5.00000			14.20786			112736.00000
-5.00000			14.23978			112837.00000
-5.00000			14.10820			112936.00000
-5.00000			14.00190			113036.00000
-5.00000			13.85554			113137.00000
-5.00000			13.79891			113236.00000
-5.00000			13.74789			113336.00000
-5.00000			13.70388			113437.00000
-5.00000			13.66374			113536.00000
0.00244			-0.01572			114704.00000
0.00244			-0.41846			114806.00000
0.00244			-0.38161			114905.00000
0.00244			-0.32526			115004.00000
0.00244			-0.27986			115106.00000
0.00244			-0.24299			115205.00000
0.00244			-0.21479			115305.00000
0.00244			-0.19134			115406.00000
0.00244			-0.17007			115505.00000
0.00244			-0.13674			115605.00000
5.25000			-12.36543			116529.00000
5.25000			-12.84347			116629.00000
5.25000			-12.94025			116730.00000
5.25000			-12.75025			116829.00000
5.25000			-12.67472			116929.00000
5.25000			-12.61218			117030.00000
5.25000			-12.55895			117129.00000
5.25000			-12.51292			117230.00000
5.25000			-12.47281			117329.00000
5.25000			-12.43558			117429.00000
-5.25000			14.67602			119413.00000
-5.25000			15.11704			119513.00000
-5.25000			15.15605			119613.00000
-5.25000			15.03515			119714.00000
-5.25000			14.92665			119813.00000
-5.25000			14.77257			119913.00000
-5.25000			14.71292			120014.00000
-5.25000			14.66109			120113.00000
-5.25000			14.61530			120213.00000
-5.25000			14.57269			120314.00000
0.00244			0.07932			121487.00000
0.00244			-0.43449			121588.00000
0.00244			-0.40755			121687.00000
0.00244			-0.34773			121787.00000
0.00244			-0.29854			121888.00000
0.00244			-0.26018			121987.00000
0.00244			-0.23007			122087.00000
0.00244			-0.20396			122188.00000
0.00244			-0.16492			122287.00000
0.00244			-0.14768			122387.00000
5.50000			-12.90078			123328.00000
5.50000			-13.74466			123430.00000
5.50000			-13.68487			123529.00000
5.50000			-13.57030			123630.00000
5.50000			-13.48565			123729.00000
5.50000			-13.41705			123829.00000
5.50000			-13.35912			123930.00000
5.50000			-13.30802			124029.00000
5.50000			-13.22244			124129.00000
5.50000			-13.18720			124230.00000
-5.50000			15.75331			126254.00000
-5.50000			16.08846			126355.00000
-5.50000			16.06320			126456.00000
-5.50000			15.91996			126555.00000
-5.50000			15.81258			126655.00000
-5.50000			15.72883			126756.00000
-5.50000			15.65787			126855.00000
-5.50000			15.54481			126955.00000
-5.50000			15.49718			127056.00000
-5.50000			15.45526			127155.00000
0.00244			-0.33551			128354.00000
0.00244			-0.45536			128455.00000
0.00244			-0.42995			128554.00000
0.00244			-0.36909			128654.00000
0.00244			-0.31935			128755.00000
0.00244			-0.27896			128854.00000
0.00244			-0.24814			128954.00000
0.00244			-0.22286			129055.00000
0.00244			-0.18146			129154.00000
0.00244			-0.16344			129254.00000
5.75000			-14.24907			130226.00000
5.75000			-14.56231			130327.00000
5.75000			-14.56774			130428.00000
5.75000			-14.45571			130527.00000
5.75000			-14.35771			130628.00000
5.75000			-14.21738			130727.00000
5.75000			-14.16176			130827.00000
5.75000			-14.11407			130928.00000
5.75000			-14.07150			131027.00000
5.75000			-14.03231			131127.00000
-5.75000			16.76238			133201.00000
-5.75000			17.06579			133302.00000
-5.75000			17.03824			133403.00000
-5.75000			16.90143			133502.00000
-5.75000			16.79184			133602.00000
-5.75000			16.70434			133703.00000
-5.75000			16.63123			133802.00000
-5.75000			16.51387			133902.00000
-5.75000			16.46461			134003.00000
-5.75000			16.42112			134102.00000
0.00244			-0.30781			135326.00000
0.00244			-0.46038			135427.00000
0.00244			-0.45820			135527.00000
0.00244			-0.39785			135628.00000
0.00244			-0.34341			135727.00000
0.00244			-0.30140			135827.00000
0.00244			-0.24090			135928.00000
0.00244			-0.21672			136027.00000
0.00244			-0.19629			136127.00000
0.00244			-0.17832			136228.00000
6.00000			-14.84593			137205.00000
6.00000			-15.37284			137306.00000
6.00000			-15.47307			137406.00000
6.00000			-15.25453			137507.00000
6.00000			-15.16796			137606.00000
6.00000			-15.09673			137706.00000
6.00000			-15.03522			137807.00000
6.00000			-14.98194			137906.00000
6.00000			-14.93468			138006.00000
6.00000			-14.89223			138107.00000
-6.00000			17.35579			140199.00000
-6.00000			17.97779			140299.00000
-6.00000			18.09635			140400.00000
-6.00000			17.81858			140499.00000
-6.00000			17.71776			140599.00000
-6.00000			17.63530			140700.00000
-6.00000			17.56454			140799.00000
-6.00000			17.50306			140899.00000
-6.00000			17.44877			141000.00000
-6.00000			17.39925			141099.00000
0.00244			-0.39905			142346.00000
0.00244			-0.49082			142448.00000
0.00244			-0.46124			142547.00000
0.00244			-0.39792			142647.00000
0.00244			-0.34652			142748.00000
0.00244			-0.30608			142847.00000
0.00244			-0.27280			142947.00000
0.00244			-0.22411			143048.00000
0.00244			-0.20501			143147.00000
0.00244			-0.18739			143247.00000
6.25000			-15.74315			144236.00000
6.25000			-16.28275			144337.00000
6.25000			-16.38668			144437.00000
6.25000			-16.16414			144538.00000
6.25000			-16.07219			144637.00000
6.25000			-15.99779			144737.00000
6.25000			-15.93315			144838.00000
6.25000			-15.87694			144937.00000
6.25000			-15.82838			145037.00000
6.25000			-15.78460			145138.00000
-6.25000			18.05030			147260.00000
-6.25000			19.14900			147361.00000
-6.25000			19.06022			147460.00000
-6.25000			18.90680			147560.00000
-6.25000			18.79337			147661.00000
-6.25000			18.70192			147760.00000
-6.25000			18.62504			147860.00000
-6.25000			18.55760			147961.00000
-6.25000			18.44462			148060.00000
-6.25000			18.39749			148160.00000
0.00244			-0.32503			149408.00000
0.00244			-0.50331			149509.00000
0.00244			-0.50470			149609.00000
0.00244			-0.44022			149710.00000
0.00244			-0.38005			149809.00000
0.00244			-0.30168			149909.00000
0.00244			-0.27074			150010.00000
0.00244			-0.24462			150109.00000
0.00244			-0.22364			150209.00000
0.00244			-0.20338			150310.00000
6.50000			-16.99890			151323.00000
6.50000			-17.28287			151424.00000
6.50000			-17.25369			151524.00000
6.50000			-17.12314			151625.00000
6.50000			-17.01621			151724.00000
6.50000			-16.93086			151824.00000
6.50000			-16.85920			151925.00000
6.50000			-16.74287			152024.00000
6.50000			-16.69368			152124.00000
6.50000			-16.64871			152225.00000
-6.50000			19.89699			154402.00000
-6.50000			20.19494			154503.00000
-6.50000			20.13299			154603.00000
-6.50000			19.96601			154704.00000
-6.50000			19.84411			154803.00000
-6.50000			19.74739			154903.00000
-6.50000			19.66653			155004.00000
-6.50000			19.53452			155103.00000
-6.50000			19.47862			155204.00000
-6.50000			19.42757			155303.00000
0.00244			-0.20247			156569.00000
0.00244			-0.47687			156670.00000
0.00244			-0.48587			156770.00000
0.00244			-0.41964			156871.00000
0.00244			-0.37017			156970.00000
0.00244			-0.33001			157070.00000
0.00244			-0.29773			157171.00000
0.00244			-0.27132			157270.00000
0.00244			-0.24641			157370.00000
0.00244			-0.20614			157471.00000
6.75000			-17.51572			158496.00000
6.75000			-18.12711			158597.00000
6.75000			-18.27691			158697.00000
6.75000			-18.04207			158798.00000
6.75000			-17.94030			158897.00000
6.75000			-17.85711			158997.00000
6.75000			-17.78670			159098.00000
6.75000			-17.72490			159197.00000
6.75000			-17.67060			159297.00000
6.75000			-17.62041			159398.00000
-6.75000			20.14412			161599.00000
-6.75000			21.32688			161701.00000
-6.75000			21.24790			161800.00000
-6.75000			21.08462			161900.00000
-6.75000			20.96081			162000.00000
-6.75000			20.85957			162100.00000
-6.75000			20.77534			162201.00000
-6.75000			20.70222			162300.00000
-6.75000			20.58016			162400.00000
-6.75000			20.52796			162501.00000
0.00244			-0.21187			163784.00000
0.00244			-0.48914			163885.00000
0.00244			-0.50864			163985.00000
0.00244			-0.44198			164086.00000
0.00244			-0.38900			164185.00000
0.00244			-0.34826			164285.00000
0.00244			-0.31613			164386.00000
0.00244			-0.28768			164485.00000
0.00244			-0.26071			164585.00000
0.00244			-0.22157			164686.00000
7.00000			-18.28053			165729.00000
7.00000			-19.26361			165831.00000
7.00000			-19.18997			165930.00000
7.00000			-19.04516			166030.00000
7.00000			-18.93251			166131.00000
7.00000			-18.84124			166230.00000
7.00000			-18.76566			166330.00000
7.00000			-18.70081			166431.00000
7.00000			-18.58879			166530.00000
7.00000			-18.54163			166630.00000
-7.00000			21.76133			168863.00000
-7.00000			22.37900			168963.00000
-7.00000			22.48233			169064.00000
-7.00000			22.15397			169165.00000
-7.00000			22.03948			169264.00000
-7.00000			21.94281			169364.00000
-7.00000			21.85906			169465.00000
-7.00000			21.78737			169564.00000
-7.00000			21.72356			169664.00000
-7.00000			21.66534			169765.00000
0.00244			-0.32938			171060.00000
0.00244			-0.54403			171161.00000
0.00244			-0.57035			171261.00000
0.00244			-0.50645			171361.00000
0.00244			-0.39141			171462.00000
0.00244			-0.35157			171561.00000
0.00244			-0.31777			171661.00000
0.00244			-0.29140			171762.00000
0.00244			-0.26755			171861.00000
0.00244			-0.24616			171961.00000
7.25000			-19.40072			173024.00000
7.25000			-20.29872			173126.00000
7.25000			-20.21233			173225.00000
7.25000			-20.06532			173325.00000
7.25000			-19.95158			173426.00000
7.25000			-19.85891			173525.00000
7.25000			-19.78071			173625.00000
7.25000			-19.71192			173726.00000
7.25000			-19.65137			173825.00000
7.25000			-19.54648			173925.00000
-7.25000			22.60182			176194.00000
-7.25000			23.69572			176296.00000
-7.25000			23.59370			176395.00000
-7.25000			23.42040			176496.00000
-7.25000			23.28897			176595.00000
-7.25000			23.18239			176695.00000
-7.25000			23.09181			176796.00000
-7.25000			23.01276			176895.00000
-7.25000			22.88105			176995.00000
-7.25000			22.82495			177096.00000
0.00244			-0.48258			178416.00000
0.00244			-0.58822			178517.00000
0.00244			-0.56419			178617.00000
0.00244			-0.49482			178718.00000
0.00244			-0.43552			178817.00000
0.00244			-0.39028			178917.00000
0.00244			-0.32189			179018.00000
0.00244			-0.29492			179117.00000
0.00244			-0.27119			179217.00000
0.00244			-0.25050			179317.00000
7.50000			-20.63050			180392.00000
7.50000			-21.23784			180492.00000
7.50000			-21.36404			180593.00000
7.50000			-21.08482			180692.00000
7.50000			-20.97262			180792.00000
7.50000			-20.87851			180893.00000
7.50000			-20.79873			180992.00000
7.50000			-20.72896			181092.00000
7.50000			-20.66692			181193.00000
7.50000			-20.61037			181292.00000
-7.50000			23.70332			183586.00000
-7.50000			24.94413			183686.00000
-7.50000			24.83864			183786.00000
-7.50000			24.63751			183887.00000
-7.50000			24.49814			183986.00000
-7.50000			24.38691			184086.00000
-7.50000			24.29220			184187.00000
-7.50000			24.21031			184286.00000
-7.50000			24.07159			184386.00000
-7.50000			24.01368			184487.00000
0.00244			-0.46300			185813.00000
0.00244			-0.60659			185913.00000
0.00244			-0.59340			186014.00000
0.00244			-0.52118			186113.00000
0.00244			-0.45681			186213.00000
0.00244			-0.37140			186314.00000
0.00244			-0.33986			186413.00000
0.00244			-0.31098			186513.00000
0.00244			-0.28763			186614.00000
0.00244			-0.26624			186713.00000
7.75000			-21.40190			187801.00000
7.75000			-22.46742			187902.00000
7.75000			-22.39021			188002.00000
7.75000			-22.22776			188103.00000
7.75000			-22.10146			188202.00000
7.75000			-21.99978			188302.00000
7.75000			-21.91304			188403.00000
7.75000			-21.83754			188502.00000
7.75000			-21.70885			188602.00000
7.75000			-21.65511			188703.00000
-7.75000			25.60319			191008.00000
-7.75000			26.16959			191109.00000
-7.75000			26.21644			191209.00000
-7.75000			26.03049			191310.00000
-7.75000			25.86586			191409.00000
-7.75000			25.63198			191509.00000
-7.75000			25.54026			191610.00000
-7.75000			25.45962			191709.00000
-7.75000			25.38907			191809.00000
-7.75000			25.32528			191910.00000
0.00244			-0.28685			193260.00000
0.00244			-0.62577			193361.00000
0.00244			-0.58282			193460.00000
0.00244			-0.51050			193561.00000
0.00244			-0.45438			193660.00000
0.00244			-0.41097			193760.00000
0.00244			-0.37492			193861.00000
0.00244			-0.34260			193960.00000
0.00244			-0.29105			194060.00000
0.00244			-0.27112			194161.00000
8.00000			-22.70248			195259.00000
8.00000			-23.42806			195361.00000
8.00000			-23.47800			195460.00000
8.00000			-23.30975			195560.00000
8.00000			-23.18316			195661.00000
8.00000			-23.07986			195760.00000
8.00000			-22.99176			195860.00000
8.00000			-22.91405			195961.00000
8.00000			-22.84485			196060.00000
8.00000			-22.78362			196160.00000
-8.00000			26.66585			198503.00000
-8.00000			27.43039			198604.00000
-8.00000			27.58009			198703.00000
-8.00000			27.19630			198803.00000
-8.00000			27.05856			198904.00000
-8.00000			26.94385			199003.00000
-8.00000			26.84572			199103.00000
-8.00000			26.75986			199204.00000
-8.00000			26.68390			199303.00000
-8.00000			26.61501			199403.00000
0.00244			-0.52058			200754.00000
0.00244			-0.65088			200855.00000
0.00244			-0.62896			200956.00000
0.00244			-0.55351			201055.00000
0.00244			-0.48884			201156.00000
0.00244			-0.43791			201255.00000
0.00244			-0.36500			201355.00000
0.00244			-0.33712			201455.00000
0.00244			-0.31194			201555.00000
0.00244			-0.28924			201655.00000
8.25000			-24.38178			202786.00000
8.25000			-24.75652			202886.00000
8.25000			-24.75139			202986.00000
8.25000			-24.58303			203087.00000
8.25000			-24.43507			203186.00000
8.25000			-24.21803			203286.00000
8.25000			-24.13244			203387.00000
8.25000			-24.05719			203486.00000
8.25000			-23.99040			203586.00000
8.25000			-23.92799			203687.00000
-8.25000			28.17225			206071.00000
-8.25000			28.85104			206172.00000
-8.25000			28.96971			206272.00000
-8.25000			28.60417			206373.00000
-8.25000			28.46316			206472.00000
-8.25000			28.34480			206572.00000
-8.25000			28.24438			206673.00000
-8.25000			28.15553			206772.00000
-8.25000			28.07560			206873.00000
-8.25000			28.00515			206972.00000
0.00244			-0.47174			208359.00000
0.00244			-0.64088			208460.00000
0.00244			-0.65571			208560.00000
0.00244			-0.52671			208660.00000
0.00244			-0.47199			208761.00000
0.00244			-0.42854			208860.00000
0.00244			-0.39192			208960.00000
0.00244			-0.36110			209061.00000
0.00244			-0.33428			209160.00000
0.00244			-0.31035			209260.00000
8.50000			-25.06176			210391.00000
8.50000			-25.84989			210491.00000
8.50000			-25.89327			210592.00000
8.50000			-25.70936			210691.00000
8.50000			-25.57212			210791.00000
8.50000			-25.45779			210892.00000
8.50000			-25.36011			210991.00000
8.50000			-25.27440			211091.00000
8.50000			-25.19879			211192.00000
8.50000			-25.06970			211291.00000
-8.50000			29.79026			213695.00000
-8.50000			30.39041			213796.00000
-8.50000			30.40469			213895.00000
-8.50000			30.16520			213995.00000
-8.50000			29.97893			214096.00000
-8.50000			29.72054			214195.00000
-8.50000			29.61902			214295.00000
-8.50000			29.52954			214396.00000
-8.50000			29.44931			214495.00000
-8.50000			29.37684			214596.00000
0.00244			-0.55836			215970.00000
0.00244			-0.69017			216071.00000
0.00244			-0.66878			216171.00000
0.00244			-0.59169			216272.00000
0.00244			-0.52513			216371.00000
0.00244			-0.47340			216471.00000
0.00244			-0.39719			216572.00000
0.00244			-0.36665			216671.00000
0.00244			-0.34139			216772.00000
0.00244			-0.31764			216871.00000
8.75000			-26.59414			218025.00000
8.75000			-27.19150			218126.00000
8.75000			-27.29060			218227.00000
8.75000			-26.94208			218326.00000
8.75000			-26.80578			218426.00000
8.75000			-26.69242			218527.00000
8.75000			-26.59399			218626.00000
8.75000			-26.50755			218726.00000
8.75000			-26.43114			218827.00000
8.75000			-26.36204			218926.00000
-8.75000			30.94207			221378.00000
-8.75000			31.77352			221480.00000
-8.75000			31.77507			221579.00000
-8.75000			31.56213			221680.00000
-8.75000			31.40654			221779.00000
-8.75000			31.27717			221879.00000
-8.75000			31.16595			221980.00000
-8.75000			31.06891			222079.00000
-8.75000			30.98325			222179.00000
-8.75000			30.90585			222280.00000
0.00244			-0.40350			223685.00000
0.00244			-0.70522			223786.00000
0.00244			-0.65614			223886.00000
0.00244			-0.57982			223987.00000
0.00244			-0.51920			224086.00000
0.00244			-0.47169			224186.00000
0.00244			-0.43228			224287.00000
0.00244			-0.39923			224386.00000
0.00244			-0.34346			224486.00000
0.00244			-0.32211			224587.00000
9.00000			-27.99820			225741.00000
9.00000			-28.55467			225841.00000
9.00000			-28.58350			225941.00000
9.00000			-28.38023			226042.00000
9.00000			-28.20346			226141.00000
9.00000			-27.94846			226241.00000
9.00000			-27.84833			226342.00000
9.00000			-27.75829			226441.00000
9.00000			-27.67869			226542.00000
9.00000			-27.60753			226641.00000
-9.00000			32.62710			229093.00000
-9.00000			33.42961			229195.00000
-9.00000			33.55003			229294.00000
-9.00000			33.30524			229394.00000
-9.00000			32.93314			229495.00000
-9.00000			32.80119			229594.00000
-9.00000			32.68805			229694.00000
-9.00000			32.58844			229795.00000
-9.00000			32.50105			229894.00000
-9.00000			32.42132			229994.00000
0.00244			-0.67024			231425.00000
0.00244			-0.71661			231525.00000
0.00244			-0.66355			231627.00000
0.00244			-0.58978			231726.00000
0.00244			-0.53101			231826.00000
0.00244			-0.48197			231927.00000
0.00244			-0.44138			232026.00000
0.00244			-0.40808			232126.00000
0.00244			-0.35434			232226.00000
0.00244			-0.33179			232326.00000
9.25000			-29.07436			233511.00000
9.25000			-29.77032			233612.00000
9.25000			-29.77254			233713.00000
9.25000			-29.56862			233812.00000
9.25000			-29.41542			233912.00000
9.25000			-29.28818			234013.00000
9.25000			-29.17978			234112.00000
9.25000			-29.08331			234212.00000
9.25000			-28.99943			234313.00000
9.25000			-28.92265			234412.00000
-9.25000			34.37318			236920.00000
-9.25000			35.07545			237020.00000
-9.25000			35.18042			237120.00000
-9.25000			34.95759			237221.00000
-9.25000			34.58570			237320.00000
-9.25000			34.45012			237420.00000
-9.25000			34.33462			237520.00000
-9.25000			34.23240			237620.00000
-9.25000			34.14241			237721.00000
-9.25000			34.06045			237820.00000
0.00244			-0.68237			239251.00000
0.00244			-0.74373			239352.00000
0.00244			-0.69592			239451.00000
0.00244			-0.62024			239551.00000
0.00244			-0.55796			239652.00000
0.00244			-0.50653			239751.00000
0.00244			-0.46533			239851.00000
0.00244			-0.43032			239952.00000
0.00244			-0.37211			240051.00000
0.00244			-0.34886			240151.00000
9.50000			-30.29293			241342.00000
9.50000			-31.13423			241444.00000
9.50000			-31.18326			241543.00000
9.50000			-30.93614			241643.00000
9.50000			-30.76168			241744.00000
9.50000			-30.62585			241843.00000
9.50000			-30.50990			241943.00000
9.50000			-30.40830			242043.00000
9.50000			-30.31897			242143.00000
9.50000			-30.16512			242244.00000
-9.50000			35.42815			244780.00000
-9.50000			36.96822			244881.00000
-9.50000			36.80253			244982.00000
-9.50000			36.52913			245081.00000
-9.50000			36.34384			245181.00000
-9.50000			36.19373			245282.00000
-9.50000			36.06522			245381.00000
-9.50000			35.95344			245481.00000
-9.50000			35.76430			245582.00000
-9.50000			35.68332			245681.00000
0.00244			-0.57409			247142.00000
0.00244			-0.73167			247243.00000
0.00244			-0.68079			247343.00000
0.00244			-0.60760			247443.00000
0.00244			-0.54886			247544.00000
0.00244			-0.50238			247643.00000
0.00244			-0.46300			247743.00000
0.00244			-0.42967			247844.00000
0.00244			-0.40081			247943.00000
0.00244			-0.35087			248043.00000
9.75000			-31.83695			249253.00000
9.75000			-32.62400			249354.00000
9.75000			-32.60837			249455.00000
9.75000			-32.37874			249554.00000
9.75000			-32.21104			249654.00000
9.75000			-32.07106			249755.00000
9.75000			-31.95046			249854.00000
9.75000			-31.84514			249954.00000
9.75000			-31.75199			250055.00000
9.75000			-31.59120			250154.00000
-9.75000			38.30965			252710.00000
-9.75000			38.78762			252811.00000
-9.75000			38.69909			252912.00000
-9.75000			38.43389			253011.00000
-9.75000			38.23173			253111.00000
-9.75000			38.06949			253212.00000
-9.75000			37.93127			253311.00000
-9.75000			37.70691			253411.00000
-9.75000			37.61230			253512.00000
-9.75000			37.52742			253611.00000
0.00244			-0.51344			255072.00000
0.00244			-0.78121			255173.00000
0.00244			-0.72546			255272.00000
0.00244			-0.64673			255372.00000
0.00244			-0.58400			255472.00000
0.00244			-0.53380			255572.00000
0.00244			-0.49087			255672.00000
0.00244			-0.45581			255773.00000
0.00244			-0.39830			255872.00000
0.00244			-0.37367			255972.00000
10.00000			-33.88520			257200.00000
10.00000			-34.25351			257301.00000
10.00000			-34.15817			257402.00000
10.00000			-33.86847			257501.00000
10.00000			-33.66791			257601.00000
10.00000			-33.51479			257702.00000
10.00000			-33.26970			257801.00000
10.00000			-33.16843			257902.00000
10.00000			-33.07862			258001.00000
10.00000			-32.99628			258101.00000
-10.00000			39.20921			260694.00000
-10.00000			40.72306			260795.00000
-10.00000			40.53691			260896.00000
-10.00000			40.24140			260995.00000
-10.00000			40.04336			261095.00000
-10.00000			39.88255			261196.00000
-10.00000			39.74559			261295.00000
-10.00000			39.62655			261395.00000
-10.00000			39.42275			261496.00000
-10.00000			39.33548			261595.00000
0.00244			-0.74692			263081.00000
0.00244			-0.78988			263181.00000
0.00244			-0.73890			263282.00000
0.00244			-0.66036			263381.00000
0.00244			-0.59546			263481.00000
0.00244			-0.54712			263582.00000
0.00244			-0.50497			263681.00000
0.00244			-0.43668			263781.00000
0.00244			-0.40913			263882.00000
0.00244			-0.38490			263981.00000
10.25000			-35.30476			265209.00000
10.25000			-35.82575			265309.00000
10.25000			-35.79750			265410.00000
10.25000			-35.53562			265511.00000
10.25000			-35.32082			265610.00000
10.25000			-35.15178			265711.00000
10.25000			-34.88490			265810.00000
10.25000			-34.77448			265910.00000
10.25000			-34.67540			266011.00000
10.25000			-34.58617			266110.00000
-10.25000			40.78643			268703.00000
-10.25000			42.78846			268804.00000
-10.25000			42.65635			268904.00000
-10.25000			42.36398			269005.00000
-10.25000			42.14719			269104.00000
-10.25000			41.97255			269204.00000
-10.25000			41.82367			269305.00000
-10.25000			41.69282			269404.00000
-10.25000			41.47477			269504.00000
-10.25000			41.38235			269605.00000
0.00244			-0.76482			271083.00000
0.00244			-0.82461			271184.00000
0.00244			-0.77173			271283.00000
0.00244			-0.68790			271383.00000
0.00244			-0.62253			271484.00000
0.00244			-0.57025			271583.00000
0.00244			-0.52591			271684.00000
0.00244			-0.48896			271783.00000
0.00244			-0.42653			271883.00000
0.00244			-0.40119			271984.00000
10.50000			-36.72968			273223.00000
10.50000			-37.38191			273324.00000
10.50000			-37.39782			273424.00000
10.50000			-37.07851			273525.00000
10.50000			-36.83349			273624.00000
10.50000			-36.50269			273724.00000
10.50000			-36.37226			273825.00000
10.50000			-36.25664			273924.00000
10.50000			-36.15372			274024.00000
10.50000			-36.06142			274125.00000
-10.50000			43.54431			276759.00000
-10.50000			44.66496			276860.00000
-10.50000			44.90354			276959.00000
-10.50000			44.60381			277060.00000
-10.50000			44.10975			277159.00000
-10.50000			43.93977			277259.00000
-10.50000			43.79285			277360.00000
-10.50000			43.66421			277459.00000
-10.50000			43.54899			277559.00000
-10.50000			43.44521			277660.00000
0.00244			-0.78920			279175.00000
0.00244			-0.82348			279276.00000
0.00244			-0.76977			279377.00000
0.00244			-0.69107			279476.00000
0.00244			-0.62718			279577.00000
0.00244			-0.57570			279676.00000
0.00244			-0.53217			279776.00000
0.00244			-0.46234			279877.00000
0.00244			-0.43467			279976.00000
0.00244			-0.40873			280076.00000
10.75000			-38.21323			281346.00000
10.75000			-38.99606			281447.00000
10.75000			-38.90738			281548.00000
10.75000			-38.64439			281647.00000
10.75000			-38.44562			281747.00000
10.75000			-38.27901			281848.00000
10.75000			-38.13501			281947.00000
10.75000			-38.01082			282047.00000
10.75000			-37.90130			282148.00000
10.75000			-37.79986			282247.00000
-10.75000			46.03095			284931.00000
-10.75000			46.98495			285032.00000
-10.75000			47.12480			285133.00000
-10.75000			46.82700			285232.00000
-10.75000			46.33921			285332.00000
-10.75000			46.16331			285433.00000
-10.75000			46.01179			285532.00000
-10.75000			45.87818			285632.00000
-10.75000			45.75836			285733.00000
-10.75000			45.65161			285832.00000
0.00244			-0.81441			287349.00000
0.00244			-0.84950			287449.00000
0.00244			-0.79498			287549.00000
0.00244			-0.71508			287650.00000
0.00244			-0.64683			287749.00000
0.00244			-0.59367			287849.00000
0.00244			-0.54931			287950.00000
0.00244			-0.51063			288049.00000
0.00244			-0.44905			288149.00000
0.00244			-0.42276			288250.00000
11.00000			-39.80727			289520.00000
11.00000			-40.71786			289621.00000
11.00000			-40.58984			289721.00000
11.00000			-40.27181			289822.00000
11.00000			-40.05985			289921.00000
11.00000			-39.88448			290021.00000
11.00000			-39.73445			290122.00000
11.00000			-39.60327			290221.00000
11.00000			-39.48564			290321.00000
11.00000			-39.38128			290422.00000
-11.00000			48.39492			293098.00000
-11.00000			49.36237			293200.00000
-11.00000			49.42777			293299.00000
-11.00000			49.04240			293399.00000
-11.00000			48.74528			293500.00000
-11.00000			48.34664			293599.00000
-11.00000			48.18972			293700.00000
-11.00000			48.05025			293799.00000
-11.00000			47.92535			293899.00000
-11.00000			47.81365			294000.00000
0.00244			-0.82615			295526.00000
0.00244			-0.86948			295628.00000
0.00244			-0.81597			295727.00000
0.00244			-0.73380			295827.00000
0.00244			-0.66438			295928.00000
0.00244			-0.61215			296027.00000
0.00244			-0.56786			296127.00000
0.00244			-0.49582			296227.00000
0.00244			-0.46556			296327.00000
0.00244			-0.43957			296427.00000
11.00000			-39.57502			297698.00000
11.00000			-40.49757			297799.00000
11.00000			-40.39578			297898.00000
11.00000			-40.08252			297998.00000
11.00000			-39.87350			298099.00000
11.00000			-39.70070			298198.00000
11.00000			-39.55247			298298.00000
11.00000			-39.42280			298399.00000
11.00000			-39.30683			298498.00000
11.00000			-39.20227			298598.00000
-11.00000			47.97753			301282.00000
-11.00000			49.02938			301384.00000
-11.00000			49.16604			301483.00000
-11.00000			48.80970			301583.00000
-11.00000			48.30167			301684.00000
-11.00000			48.12399			301783.00000
-11.00000			47.96977			301883.00000
-11.00000			47.83429			301984.00000
-11.00000			47.71271			302083.00000
-11.00000			47.60395			302183.00000
0.00244			-0.82471			303711.00000
0.00244			-0.87642			303813.00000
0.00244			-0.82761			303912.00000
0.00244			-0.74370			304012.00000
0.00244			-0.67458			304113.00000
0.00244			-0.62107			304212.00000
0.00244			-0.57387			304312.00000
0.00244			-0.50186			304413.00000
0.00244			-0.47036			304512.00000
0.00244			-0.44525			304612.00000
10.75000			-37.62416			305882.00000
10.75000			-38.44482			305983.00000
10.75000			-38.40734			306084.00000
10.75000			-38.14587			306183.00000
10.75000			-37.94966			306283.00000
10.75000			-37.78591			306384.00000
10.75000			-37.64588			306484.00000
10.75000			-37.52317			306583.00000
10.75000			-37.41336			306684.00000
10.75000			-37.22706			306783.00000
-10.75000			45.42663			309462.00000
-10.75000			46.29052			309562.00000
-10.75000			46.39913			309663.00000
-10.75000			46.10789			309762.00000
-10.75000			45.65154			309862.00000
-10.75000			45.48725			309963.00000
-10.75000			45.34484			310062.00000
-10.75000			45.22014			310162.00000
-10.75000			45.10804			310263.00000
-10.75000			45.00687			310362.00000
0.00244			-0.83437			311885.00000
0.00244			-0.86616			311985.00000
0.00244			-0.81089			312085.00000
0.00244			-0.73091			312186.00000
0.00244			-0.66423			312285.00000
0.00244			-0.61064			312385.00000
0.00244			-0.56482			312486.00000
0.00244			-0.49454			312585.00000
0.00244			-0.46687			312686.00000
0.00244			-0.44115			312785.00000
10.50000			-36.01741			314025.00000
10.50000			-36.66798			314126.00000
10.50000			-36.69133			314227.00000
10.50000			-36.38051			314326.00000
10.50000			-36.13936			314426.00000
10.50000			-35.81819			314527.00000
10.50000			-35.69022			314626.00000
10.50000			-35.57812			314726.00000
10.50000			-35.47849			314827.00000
10.50000			-35.38835			314926.00000
-10.50000			42.57614			317562.00000
-10.50000			43.68025			317662.00000
-10.50000			43.93964			317762.00000
-10.50000			43.38873			317863.00000
-10.50000			43.19333			317962.00000
-10.50000			43.03048			318063.00000
-10.50000			42.89086			318162.00000
-10.50000			42.76852			318262.00000
-10.50000			42.65929			318363.00000
-10.50000			42.56252			318462.00000
0.00244			-0.81717			319978.00000
0.00244			-0.84917			320080.00000
0.00244			-0.79619			320179.00000
0.00244			-0.71762			320279.00000
0.00244			-0.65420			320380.00000
0.00244			-0.60096			320479.00000
0.00244			-0.55557			320580.00000
0.00244			-0.48610			320679.00000
0.00244			-0.45639			320779.00000
0.00244			-0.43005			320880.00000
10.25000			-34.46695			322106.00000
10.25000			-34.98705			322207.00000
10.25000			-34.95958			322306.00000
10.25000			-34.69732			322406.00000
10.25000			-34.48704			322507.00000
10.25000			-34.32127			322606.00000
10.25000			-34.06014			322706.00000
10.25000			-33.95553			322807.00000
10.25000			-33.86072			322906.00000
10.25000			-33.77516			323006.00000
-10.25000			39.74370			325599.00000
-10.25000			41.68985			325701.00000
-10.25000			41.57072			325800.00000
-10.25000			41.29162			325900.00000
-10.25000			41.08420			326001.00000
-10.25000			40.91746			326100.00000
-10.25000			40.77348			326200.00000
-10.25000			40.64959			326301.00000
-10.25000			40.44331			326400.00000
-10.25000			40.35355			326500.00000
0.00244			-0.80084			327980.00000
0.00244			-0.85872			328081.00000
0.00244			-0.80393			328182.00000
0.00244			-0.72013			328281.00000
0.00244			-0.65375			328381.00000
0.00244			-0.59993			328482.00000
0.00244			-0.55547			328581.00000
0.00244			-0.48564			328681.00000
0.00244			-0.45636			328782.00000
0.00244			-0.43080			328881.00000
10.00000			-32.91381			330110.00000
10.00000			-33.31907			330210.00000
10.00000			-33.24979			330311.00000
10.00000			-32.96725			330410.00000
10.00000			-32.76499			330510.00000
10.00000			-32.61383			330611.00000
10.00000			-32.37328			330710.00000
10.00000			-32.27503			330810.00000
10.00000			-32.18704			330911.00000
10.00000			-32.10695			331010.00000
-10.00000			37.98548			333603.00000
-10.00000			39.53837			333704.00000
-10.00000			39.38960			333804.00000
-10.00000			39.10236			333904.00000
-10.00000			38.90736			334004.00000
-10.00000			38.75006			334105.00000
-10.00000			38.61718			334204.00000
-10.00000			38.50196			334304.00000
-10.00000			38.30746			334405.00000
-10.00000			38.22434			334504.00000
0.00244			-0.78118			335996.00000
0.00244			-0.82896			336096.00000
0.00244			-0.78279			336197.00000
0.00244			-0.70600			336296.00000
0.00244			-0.63937			336396.00000
0.00244			-0.58772			336497.00000
0.00244			-0.50497			336596.00000
0.00244			-0.47247			336696.00000
0.00244			-0.44555			336797.00000
0.00244			-0.41984			336896.00000
9.75000			-31.42298			338105.00000
9.75000			-31.79535			338207.00000
9.75000			-31.72897			338306.00000
9.75000			-31.49542			338406.00000
9.75000			-31.31017			338507.00000
9.75000			-31.16389			338606.00000
9.75000			-30.93179			338706.00000
9.75000			-30.83814			338807.00000
9.75000			-30.75207			338906.00000
9.75000			-30.67481			339006.00000
-9.75000			36.71993			341562.00000
-9.75000			37.46383			341664.00000
-9.75000			37.55535			341763.00000
-9.75000			37.31759			341863.00000
-9.75000			36.92725			341964.00000
-9.75000			36.78793			342063.00000
-9.75000			36.66788			342163.00000
-9.75000			36.56181			342264.00000
-9.75000			36.46657			342363.00000
-9.75000			36.38152			342463.00000
0.00244			-0.73146			343925.00000
0.00244			-0.82416			344026.00000
0.00244			-0.79458			344126.00000
0.00244			-0.71553			344227.00000
0.00244			-0.64465			344326.00000
0.00244			-0.54323			344426.00000
0.00244			-0.50490			344527.00000
0.00244			-0.47137			344626.00000
0.00244			-0.44420			344726.00000
0.00244			-0.41959			344827.00000
9.50000			-29.90925			346017.00000
9.50000			-30.30316			346118.00000
9.50000			-30.24595			346218.00000
9.50000			-30.01871			346319.00000
9.50000			-29.83922			346418.00000
9.50000			-29.69728			346518.00000
9.50000			-29.47250			346619.00000
9.50000			-29.38121			346718.00000
9.50000			-29.29934			346818.00000
9.50000			-29.22560			346919.00000
-9.50000			35.26231			349437.00000
-9.50000			35.70154			349538.00000
-9.50000			35.59308			349639.00000
-9.50000			35.31846			349738.00000
-9.50000			35.13017			349838.00000
-9.50000			34.98275			349939.00000
-9.50000			34.85665			350038.00000
-9.50000			34.65120			350138.00000
-9.50000			34.56546			350239.00000
-9.50000			34.48696			350338.00000
0.00244			-0.60441			351799.00000
0.00244			-0.79606			351901.00000
0.00244			-0.73637			352000.00000
0.00244			-0.66026			352100.00000
0.00244			-0.59802			352201.00000
0.00244			-0.55180			352300.00000
0.00244			-0.51095			352400.00000
0.00244			-0.47521			352501.00000
0.00244			-0.41939			352600.00000
0.00244			-0.39616			352700.00000
9.25000			-28.14397			353885.00000
9.25000			-28.75137			353986.00000
9.25000			-28.86680			354087.00000
9.25000			-28.49475			354186.00000
9.25000			-28.34728			354287.00000
9.25000			-28.22442			354386.00000
9.25000			-28.12054			354486.00000
9.25000			-28.02902			354587.00000
9.25000			-27.94691			354686.00000
9.25000			-27.87419			354786.00000
-9.25000			33.26732			357293.00000
-9.25000			33.85148			357394.00000
-9.25000			33.89966			357495.00000
-9.25000			33.67365			357594.00000
-9.25000			33.47729			357694.00000
-9.25000			33.19832			357795.00000
-9.25000			33.08783			357894.00000
-9.25000			32.99050			357994.00000
-9.25000			32.90529			358095.00000
-9.25000			32.82838			358194.00000
0.00244			-0.54662			359632.00000
0.00244			-0.79259			359732.00000
0.00244			-0.73538			359833.00000
0.00244			-0.65870			359932.00000
0.00244			-0.59634			360032.00000
0.00244			-0.54725			360133.00000
0.00244			-0.50487			360232.00000
0.00244			-0.46938			360332.00000
0.00244			-0.41401			360433.00000
0.00244			-0.39116			360532.00000
9.00000			-26.96181			361687.00000
9.00000			-27.48417			361787.00000
9.00000			-27.50091			361888.00000
9.00000			-27.29928			361987.00000
9.00000			-27.12524			362087.00000
9.00000			-26.87449			362188.00000
9.00000			-26.77619			362287.00000
9.00000			-26.68998			362387.00000
9.00000			-26.61339			362488.00000
9.00000			-26.54369			362587.00000
-9.00000			31.43728			365040.00000
-9.00000			32.18023			365141.00000
-9.00000			32.27998			365241.00000
-9.00000			32.04178			365342.00000
-9.00000			31.68190			365441.00000
-9.00000			31.55482			365541.00000
-9.00000			31.44591			365642.00000
-9.00000			31.35029			365741.00000
-9.00000			31.26478			365841.00000
-9.00000			31.18852			365942.00000
0.00244			-0.53531			367371.00000
0.00244			-0.77269			367473.00000
0.00244			-0.71581			367572.00000
0.00244			-0.64120			367672.00000
0.00244			-0.58131			367773.00000
0.00244			-0.53244			367872.00000
0.00244			-0.49218			367972.00000
0.00244			-0.45729			368073.00000
0.00244			-0.40295			368172.00000
0.00244			-0.37917			368272.00000
8.75000			-25.76096			369427.00000
8.75000			-26.17717			369528.00000
8.75000			-26.16850			369627.00000
8.75000			-25.97627			369727.00000
8.75000			-25.81375			369828.00000
8.75000			-25.58062			369927.00000
8.75000			-25.48832			370027.00000
8.75000			-25.40684			370128.00000
8.75000			-25.33354			370227.00000
8.75000			-25.26784			370327.00000
-8.75000			30.03334			372780.00000
-8.75000			30.62366			372881.00000
-8.75000			30.67441			372982.00000
-8.75000			30.45963			373081.00000
-8.75000			30.12717			373181.00000
-8.75000			30.00745			373282.00000
-8.75000			29.90417			373381.00000
-8.75000			29.81399			373481.00000
-8.75000			29.73358			373582.00000
-8.75000			29.66155			373681.00000
0.00244			-0.57397			375088.00000
0.00244			-0.74370			375188.00000
0.00244			-0.68992			375289.00000
0.00244			-0.61572			375388.00000
0.00244			-0.55710			375488.00000
0.00244			-0.51236			375589.00000
0.00244			-0.47534			375688.00000
0.00244			-0.44068			375788.00000
0.00244			-0.41300			375889.00000
0.00244			-0.38998			375988.00000
8.50000			-24.00604			377119.00000
8.50000			-24.76765			377220.00000
8.50000			-24.81202			377320.00000
8.50000			-24.62888			377421.00000
8.50000			-24.49026			377520.00000
8.50000			-24.37725			377620.00000
8.50000			-24.28330			377721.00000
8.50000			-24.19957			377820.00000
8.50000			-24.12470			377920.00000
8.50000			-23.99832			378021.00000
-8.50000			28.54952			380423.00000
-8.50000			29.13565			380524.00000
-8.50000			29.15691			380625.00000
-8.50000			28.92700			380724.00000
-8.50000			28.74334			380825.00000
-8.50000			28.49081			380924.00000
-8.50000			28.39183			381024.00000
-8.50000			28.30408			381125.00000
-8.50000			28.22654			381224.00000
-8.50000			28.15711			381324.00000
0.00244			-0.62856			382700.00000
0.00244			-0.75338			382801.00000
0.00244			-0.72893			382900.00000
0.00244			-0.65196			383001.00000
0.00244			-0.58510			383100.00000
0.00244			-0.53151			383200.00000
0.00244			-0.45292			383301.00000
0.00244			-0.42208			383400.00000
0.00244			-0.39445			383500.00000
0.00244			-0.37015			383601.00000
8.25000			-23.30542			384730.00000
8.25000			-23.67327			384830.00000
8.25000			-23.67443			384931.00000
8.25000			-23.51103			385030.00000
8.25000			-23.36258			385130.00000
8.25000			-23.14664			385231.00000
8.25000			-23.06136			385330.00000
8.25000			-22.98636			385430.00000
8.25000			-22.92008			385531.00000
8.25000			-22.86096			385630.00000
-8.25000			26.94606			388015.00000
-8.25000			27.61179			388116.00000
-8.25000			27.57109			388217.00000
-8.25000			27.38258			388316.00000
-8.25000			27.24368			388416.00000
-8.25000			27.12909			388517.00000
-8.25000			27.03084			388616.00000
-8.25000			26.94410			388716.00000
-8.25000			26.86812			388817.00000
-8.25000			26.79990			388916.00000
0.00244			-0.55052			390304.00000
0.00244			-0.70879			390405.00000
0.00244			-0.65322			390505.00000
0.00244			-0.58405			390606.00000
0.00244			-0.52842			390705.00000
0.00244			-0.48429			390805.00000
0.00244			-0.44671			390906.00000
0.00244			-0.41630			391005.00000
0.00244			-0.38955			391105.00000
0.00244			-0.36407			391206.00000
8.00000			-21.93632			392305.00000
8.00000			-22.46420			392406.00000
8.00000			-22.52460			392506.00000
8.00000			-22.35235			392607.00000
8.00000			-22.07931			392706.00000
8.00000			-21.98164			392806.00000
8.00000			-21.89721			392907.00000
8.00000			-21.82318			393006.00000
8.00000			-21.75849			393106.00000
8.00000			-21.69985			393207.00000
-8.00000			25.82476			395542.00000
-8.00000			26.32598			395643.00000
-8.00000			26.32223			395742.00000
-8.00000			26.10607			395842.00000
-8.00000			25.94134			395943.00000
-8.00000			25.81476			396042.00000
-8.00000			25.61885			396143.00000
-8.00000			25.53825			396242.00000
-8.00000			25.46659			396342.00000
-8.00000			25.40327			396443.00000
0.00244			-0.40421			397793.00000
0.00244			-0.71955			397895.00000
0.00244			-0.66589			397994.00000
0.00244			-0.58922			398094.00000
0.00244			-0.53031			398195.00000
0.00244			-0.48381			398294.00000
0.00244			-0.44626			398394.00000
0.00244			-0.41363			398495.00000
0.00244			-0.38551			398594.00000
0.00244			-0.33828			398694.00000
7.75000			-20.80828			399782.00000
7.75000			-21.32202			399882.00000
7.75000			-21.40630			399983.00000
7.75000			-21.26363			400082.00000
7.75000			-21.00160			400182.00000
7.75000			-20.90699			400283.00000
7.75000			-20.82578			400382.00000
7.75000			-20.75495			400482.00000
7.75000			-20.69128			400583.00000
7.75000			-20.63458			400682.00000
-7.75000			23.83530			402988.00000
-7.75000			25.04982			403088.00000
-7.75000			24.95517			403189.00000
-7.75000			24.76660			403288.00000
-7.75000			24.62451			403388.00000
-7.75000			24.51012			403489.00000
-7.75000			24.41263			403588.00000
-7.75000			24.32825			403688.00000
-7.75000			24.18732			403789.00000
-7.75000			24.12946			403888.00000
0.00244			-0.52759			405240.00000
0.00244			-0.67903			405340.00000
0.00244			-0.68074			405441.00000
0.00244			-0.61361			405542.00000
0.00244			-0.49449			405641.00000
0.00244			-0.45221			405742.00000
0.00244			-0.41604			405841.00000
0.00244			-0.38734			405941.00000
0.00244			-0.36273			406042.00000
0.00244			-0.34006			406141.00000
7.50000			-20.06115			407216.00000
7.50000			-20.32335			407317.00000
7.50000			-20.25423			407418.00000
7.50000			-20.09380			407517.00000
7.50000			-19.97041			407617.00000
7.50000			-19.87040			407718.00000
7.50000			-19.78665			407817.00000
7.50000			-19.64951			407918.00000
7.50000			-19.59258			408017.00000
7.50000			-19.54251			408117.00000
-7.50000			23.23854			410411.00000
-7.50000			23.72853			410511.00000
-7.50000			23.74979			410612.00000
-7.50000			23.54703			410711.00000
-7.50000			23.38757			410811.00000
-7.50000			23.17108			410912.00000
-7.50000			23.08633			411011.00000
-7.50000			23.01137			411111.00000
-7.50000			22.94648			411212.00000
-7.50000			22.88776			411311.00000
0.00244			-0.43686			412632.00000
0.00244			-0.64782			412732.00000
0.00244			-0.67730			412833.00000
0.00244			-0.54549			412932.00000
0.00244			-0.49286			413032.00000
0.00244			-0.44872			413133.00000
0.00244			-0.41135			413232.00000
0.00244			-0.38103			413332.00000
0.00244			-0.35401			413433.00000
0.00244			-0.33147			413532.00000
7.25000			-18.38160			414595.00000
7.25000			-19.27834			414696.00000
7.25000			-19.19992			414797.00000
7.25000			-19.05263			414896.00000
7.25000			-18.93665			414996.00000
7.25000			-18.84401			415097.00000
7.25000			-18.76541			415196.00000
7.25000			-18.69747			415296.00000
7.25000			-18.58205			415397.00000
7.25000			-18.53384			415496.00000
-7.25000			22.29420			417766.00000
-7.25000			22.55889			417867.00000
-7.25000			22.47162			417966.00000
-7.25000			22.29807			418066.00000
-7.25000			22.16525			418167.00000
-7.25000			22.05896			418266.00000
-7.25000			21.97003			418366.00000
-7.25000			21.89226			418467.00000
-7.25000			21.76163			418566.00000
-7.25000			21.70787			418666.00000
0.00244			-0.54951			419987.00000
0.00244			-0.65430			420089.00000
0.00244			-0.63037			420188.00000
0.00244			-0.56117			420288.00000
0.00244			-0.50148			420389.00000
0.00244			-0.45533			420488.00000
0.00244			-0.38390			420588.00000
0.00244			-0.35504			420689.00000
0.00244			-0.32961			420788.00000
0.00244			-0.30977			420889.00000
7.00000			-17.81531			421932.00000
7.00000			-18.22463			422033.00000
7.00000			-18.25263			422134.00000
7.00000			-18.11107			422233.00000
7.00000			-17.98592			422333.00000
7.00000			-17.80603			422434.00000
7.00000			-17.73678			422533.00000
7.00000			-17.67508			422633.00000
7.00000			-17.62034			422734.00000
7.00000			-17.57059			422833.00000
-7.00000			21.06296			425073.00000
-7.00000			21.38278			425173.00000
-7.00000			21.31441			425273.00000
-7.00000			21.12924			425374.00000
-7.00000			20.99703			425473.00000
-7.00000			20.89282			425573.00000
-7.00000			20.80487			425674.00000
-7.00000			20.66404			425773.00000
-7.00000			20.60376			425873.00000
-7.00000			20.54968			425974.00000
0.00244			-0.54469			427270.00000
0.00244			-0.64153			427370.00000
0.00244			-0.61006			427471.00000
0.00244			-0.53921			427570.00000
0.00244			-0.47941			427670.00000
0.00244			-0.43457			427771.00000
0.00244			-0.39910			427870.00000
0.00244			-0.34004			427970.00000
0.00244			-0.31860			428071.00000
0.00244			-0.29849			428170.00000
6.75000			-17.04793			429197.00000
6.75000			-17.29974			429298.00000
6.75000			-17.24758			429397.00000
6.75000			-17.10816			429497.00000
6.75000			-16.99819			429598.00000
6.75000			-16.91027			429697.00000
6.75000			-16.83625			429797.00000
6.75000			-16.77210			429898.00000
6.75000			-16.66508			429997.00000
6.75000			-16.61903			430097.00000
-6.75000			19.80007			432299.00000
-6.75000			20.22370			432400.00000
-6.75000			20.22684			432501.00000
-6.75000			20.06311			432600.00000
-6.75000			19.92711			432700.00000
-6.75000			19.73485			432801.00000
-6.75000			19.65965			432900.00000
-6.75000			19.59357			433000.00000
-6.75000			19.53430			433101.00000
-6.75000			19.48149			433200.00000
0.00244			-0.51299			434484.00000
0.00244			-0.61906			434586.00000
0.00244			-0.59418			434685.00000
0.00244			-0.52468			434785.00000
0.00244			-0.46574			434886.00000
0.00244			-0.42183			434985.00000
0.00244			-0.38576			435085.00000
0.00244			-0.32933			435186.00000
0.00244			-0.30625			435285.00000
0.00244			-0.28612			435385.00000
6.50000			-15.53229			436400.00000
6.50000			-16.35996			436500.00000
6.50000			-16.28491			436601.00000
6.50000			-16.15406			436700.00000
6.50000			-16.05251			436800.00000
6.50000			-15.96967			436901.00000
6.50000			-15.89972			437000.00000
6.50000			-15.84020			437100.00000
6.50000			-15.73978			437201.00000
6.50000			-15.69683			437300.00000
-6.50000			18.29069			439472.00000
-6.50000			19.16773			439573.00000
-6.50000			19.05590			439674.00000
-6.50000			18.89871			439773.00000
-6.50000			18.78479			439873.00000
-6.50000			18.69401			439974.00000
-6.50000			18.61692			440073.00000
-6.50000			18.54946			440174.00000
-6.50000			18.48978			440273.00000
-6.50000			18.38932			440373.00000
0.00244			-0.40250			441634.00000
0.00244			-0.58314			441734.00000
0.00244			-0.59377			441834.00000
0.00244			-0.52898			441935.00000
0.00244			-0.41896			442034.00000
0.00244			-0.38020			442134.00000
0.00244			-0.34871			442235.00000
0.00244			-0.32214			442334.00000
0.00244			-0.29811			442434.00000
0.00244			-0.27778			442535.00000
6.25000			-14.56103			443524.00000
6.25000			-15.46692			443625.00000
6.25000			-15.39981			443726.00000
6.25000			-15.27162			443825.00000
6.25000			-15.17203			443925.00000
6.25000			-15.09105			444026.00000
6.25000			-15.02281			444125.00000
6.25000			-14.96477			444225.00000
6.25000			-14.86810			444326.00000
6.25000			-14.82628			444425.00000
-6.25000			17.67134			446548.00000
-6.25000			18.10439			446649.00000
-6.25000			18.11097			446750.00000
-6.25000			17.95645			446849.00000
-6.25000			17.83042			446949.00000
-6.25000			17.64915			447050.00000
-6.25000			17.57985			447149.00000
-6.25000			17.51932			447249.00000
-6.25000			17.46402			447350.00000
-6.25000			17.41589			447449.00000
0.00244			-0.28037			448697.00000
0.00244			-0.53637			448798.00000
0.00244			-0.53400			448897.00000
0.00244			-0.46885			448997.00000
0.00244			-0.41655			449098.00000
0.00244			-0.37603			449197.00000
0.00244			-0.34361			449297.00000
0.00244			-0.31691			449398.00000
0.00244			-0.29213			449497.00000
0.00244			-0.25294			449597.00000
6.00000			-14.30518			450575.00000
6.00000			-14.57151			450677.00000
6.00000			-14.53159			450776.00000
6.00000			-14.40506			450876.00000
6.00000			-14.30530			450977.00000
6.00000			-14.22653			451076.00000
6.00000			-14.16025			451176.00000
6.00000			-14.05506			451277.00000
6.00000			-14.01115			451376.00000
6.00000			-13.97048			451476.00000
-6.00000			16.79199			453563.00000
-6.00000			17.11495			453664.00000
-6.00000			17.06415			453763.00000
-6.00000			16.90578			453863.00000
-6.00000			16.79058			453964.00000
-6.00000			16.70002			454063.00000
-6.00000			16.62469			454163.00000
-6.00000			16.50314			454264.00000
-6.00000			16.45264			454363.00000
-6.00000			16.40692			454463.00000
0.00244			-0.38154			455712.00000
0.00244			-0.54215			455813.00000
0.00244			-0.54763			455913.00000
0.00244			-0.49024			456014.00000
0.00244			-0.38694			456113.00000
0.00244			-0.34906			456213.00000
0.00244			-0.31900			456314.00000
0.00244			-0.29545			456413.00000
0.00244			-0.27396			456513.00000
0.00244			-0.25463			456614.00000
5.75000			-13.06464			457578.00000
5.75000			-13.59282			457680.00000
5.75000			-13.66240			457779.00000
5.75000			-13.55253			457879.00000
5.75000			-13.46657			457980.00000
5.75000			-13.39556			458079.00000
5.75000			-13.33544			458180.00000
5.75000			-13.28346			458279.00000
5.75000			-13.23774			458379.00000
5.75000			-13.15985			458480.00000
-5.75000			15.63741			460547.00000
-5.75000			16.07898			460648.00000
-5.75000			16.13702			460749.00000
-5.75000			16.01107			460848.00000
-5.75000			15.79546			460948.00000
-5.75000			15.71888			461049.00000
-5.75000			15.65496			461148.00000
-5.75000			15.59752			461248.00000
-5.75000			15.54617			461349.00000
-5.75000			15.50143			461448.00000
0.00244			-0.27139			462672.00000
0.00244			-0.49874			462772.00000
0.00244			-0.54139			462873.00000
0.00244			-0.43000			462972.00000
0.00244			-0.38113			463072.00000
0.00244			-0.34438			463173.00000
0.00244			-0.31505			463272.00000
0.00244			-0.28952			463372.00000
0.00244			-0.26694			463473.00000
0.00244			-0.24706			463572.00000
5.50000			-12.33044			464513.00000
5.50000			-12.80947			464614.00000
5.50000			-12.91312			464715.00000
5.50000			-12.71194			464814.00000
5.50000			-12.63129			464914.00000
5.50000			-12.56505			465015.00000
5.50000			-12.50958			465114.00000
5.50000			-12.46052			465214.00000
5.50000			-12.41676			465315.00000
5.50000			-12.37893			465414.00000
-5.50000			14.28588			467440.00000
-5.50000			15.20069			467541.00000
-5.50000			15.11707			467641.00000
-5.50000			14.97659			467742.00000
-5.50000			14.87798			467841.00000
-5.50000			14.79695			467941.00000
-5.50000			14.73006			468042.00000
-5.50000			14.67268			468141.00000
-5.50000			14.57594			468241.00000
-5.50000			14.53570			468342.00000
0.00244			-0.18344			469540.00000
0.00244			-0.46295			469641.00000
0.00244			-0.48092			469742.00000
0.00244			-0.42064			469841.00000
0.00244			-0.37294			469941.00000
0.00244			-0.33380			470042.00000
0.00244			-0.30319			470141.00000
0.00244			-0.27622			470241.00000
0.00244			-0.25581			470342.00000
0.00244			-0.21909			470441.00000
5.25000			-11.63569			471364.00000
5.25000			-12.06145			471463.00000
5.25000			-12.13231			471563.00000
5.25000			-12.03471			471664.00000
5.25000			-11.85891			471763.00000
5.25000			-11.79607			471863.00000
5.25000			-11.74429			471964.00000
5.25000			-11.69946			472063.00000
5.25000			-11.65831			472163.00000
5.25000			-11.62242			472264.00000
-5.25000			13.88435			474245.00000
-5.25000			14.26200			474346.00000
-5.25000			14.27391			474447.00000
-5.25000			14.14648			474546.00000
-5.25000			14.03933			474646.00000
-5.25000			13.88611			474747.00000
-5.25000			13.82749			474846.00000
-5.25000			13.77672			474946.00000
-5.25000			13.73057			475046.00000
-5.25000			13.68983			475146.00000
0.00244			-0.07740			476321.00000
0.00244			-0.51005			476422.00000
0.00244			-0.47474			476522.00000
0.00244			-0.41177			476623.00000
0.00244			-0.36170			476722.00000
0.00244			-0.32370			476822.00000
0.00244			-0.29316			476923.00000
0.00244			-0.26722			477022.00000
0.00244			-0.22617			477122.00000
0.00244			-0.21014			477223.00000
5.00000			-10.96443			478120.00000
5.00000			-11.33734			478221.00000
5.00000			-11.37464			478322.00000
5.00000			-11.27176			478421.00000
5.00000			-11.17911			478521.00000
5.00000			-11.05127			478622.00000
5.00000			-11.00100			478721.00000
5.00000			-10.95792			478821.00000
5.00000			-10.92080			478922.00000
5.00000			-10.88636			479021.00000
-5.00000			12.74968			480955.00000
-5.00000			13.30875			481056.00000
-5.00000			13.42010			481155.00000
-5.00000			13.18258			481255.00000
-5.00000			13.09825			481356.00000
-5.00000			13.02930			481455.00000
-5.00000			12.96981			481555.00000
-5.00000			12.91826			481656.00000
-5.00000			12.87296			481755.00000
-5.00000			12.83348			481855.00000
0.00244			-0.36630			483019.00000
0.00244			-0.48047			483119.00000
0.00244			-0.45639			483219.00000
0.00244			-0.39712			483320.00000
0.00244			-0.34853			483419.00000
0.00244			-0.31023			483519.00000
0.00244			-0.27949			483620.00000
0.00244			-0.23469			483719.00000
0.00244			-0.21655			483819.00000
0.00244			-0.19833			483920.00000
4.75000			-10.25904			484806.00000
4.75000			-10.60251			484906.00000
4.75000			-10.63537			485006.00000
4.75000			-10.53867			485107.00000
4.75000			-10.45198			485206.00000
4.75000			-10.33095			485306.00000
4.75000			-10.28448			485407.00000
4.75000			-10.24341			485506.00000
4.75000			-10.20659			485606.00000
4.75000			-10.17384			485707.00000
-4.75000			12.04064			487628.00000
-4.75000			12.48450			487729.00000
-4.75000			12.54623			487829.00000
-4.75000			12.43893			487930.00000
-4.75000			12.25821			488029.00000
-4.75000			12.19226			488129.00000
-4.75000			12.13673			488230.00000
-4.75000			12.09018			488329.00000
-4.75000			12.04841			488430.00000
-4.75000			12.01046			488529.00000
0.00244			-0.12802			489673.00000
0.00244			-0.40662			489774.00000
0.00244			-0.41660			489874.00000
0.00244			-0.35964			489975.00000
0.00244			-0.31739			490074.00000
0.00244			-0.28431			490174.00000
0.00244			-0.25611			490275.00000
0.00244			-0.23233			490374.00000
0.00244			-0.21233			490474.00000
0.00244			-0.19443			490575.00000
4.50000			-9.28393			491430.00000
4.50000			-9.82335			491530.00000
4.50000			-9.88267			491631.00000
4.50000			-9.78982			491730.00000
4.50000			-9.71977			491830.00000
4.50000			-9.66211			491931.00000
4.50000			-9.61430			492030.00000
4.50000			-9.57316			492130.00000
4.50000			-9.53669			492231.00000
4.50000			-9.50484			492330.00000
-4.50000			11.44291			494184.00000
-4.50000			11.73276			494286.00000
-4.50000			11.68443			494385.00000
-4.50000			11.55632			494485.00000
-4.50000			11.46817			494586.00000
-4.50000			11.39993			494685.00000
-4.50000			11.34297			494785.00000
-4.50000			11.24979			494886.00000
-4.50000			11.21179			494985.00000
-4.50000			11.17705			495086.00000
0.00244			-0.32129			496204.00000
0.00244			-0.44038			496305.00000
0.00244			-0.41758			496405.00000
0.00244			-0.35959			496506.00000
0.00244			-0.31058			496605.00000
0.00244			-0.27489			496705.00000
0.00244			-0.24711			496806.00000
0.00244			-0.22399			496905.00000
0.00244			-0.18533			497006.00000
0.00244			-0.17030			497105.00000
4.25000			-8.54561			497955.00000
4.25000			-9.25198			498055.00000
4.25000			-9.20787			498155.00000
4.25000			-9.11937			498256.00000
4.25000			-9.05100			498355.00000
4.25000			-8.99626			498455.00000
4.25000			-8.95077			498556.00000
4.25000			-8.91178			498655.00000
4.25000			-8.84600			498756.00000
4.25000			-8.81788			498855.00000
-4.25000			10.61456			500703.00000
-4.25000			10.90012			500805.00000
-4.25000			10.88423			500904.00000
-4.25000			10.77716			501004.00000
-4.25000			10.69223			501105.00000
-4.25000			10.62705			501204.00000
-4.25000			10.57122			501304.00000
-4.25000			10.48074			501405.00000
-4.25000			10.44525			501504.00000
-4.25000			10.41267			501604.00000
0.00244			0.06343			502705.00000
0.00244			-0.41778			502805.00000
0.00244			-0.39141			502907.00000
0.00244			-0.33410			503006.00000
0.00244			-0.29065			503106.00000
0.00244			-0.25631			503207.00000
0.00244			-0.23000			503306.00000
0.00244			-0.20810			503407.00000
0.00244			-0.17063			503506.00000
0.00244			-0.15673			503606.00000
4.00000			-8.10507			504425.00000
4.00000			-8.51696			504526.00000
4.00000			-8.58922			504625.00000
4.00000			-8.50977			504725.00000
4.00000			-8.37123			504826.00000
4.00000			-8.32136			504925.00000
4.00000			-8.28019			505025.00000
4.00000			-8.24397			505126.00000
4.00000			-8.21283			505225.00000
4.00000			-8.18400			505326.00000
-4.00000			9.21780			507100.00000
-4.00000			10.14561			507200.00000
-4.00000			10.08858			507301.00000
-4.00000			9.97723			507400.00000
-4.00000			9.90170			507500.00000
-4.00000			9.83959			507601.00000
-4.00000			9.78885			507700.00000
-4.00000			9.74489			507801.00000
-4.00000			9.67290			507900.00000
-4.00000			9.64251			508000.00000
0.00244			-0.11847			509084.00000
0.00244			-0.35964			509185.00000
0.00244			-0.39262			509285.00000
0.00244			-0.34099			509386.00000
0.00244			-0.25287			509485.00000
0.00244			-0.22429			509585.00000
0.00244			-0.20029			509686.00000
0.00244			-0.17955			509785.00000
0.00244			-0.16188			509885.00000
0.00244			-0.14843			509986.00000
3.75000			-7.26222			510792.00000
3.75000			-7.94846			510892.00000
3.75000			-7.90615			510992.00000
3.75000			-7.82456			511093.00000
3.75000			-7.76231			511192.00000
3.75000			-7.71123			511292.00000
3.75000			-7.67076			511393.00000
3.75000			-7.63593			511492.00000
3.75000			-7.57774			511592.00000
3.75000			-7.55288			511693.00000
-3.75000			9.07878			513461.00000
-3.75000			9.36567			513562.00000
-3.75000			9.35994			513661.00000
-3.75000			9.26003			513761.00000
-3.75000			9.18196			513862.00000
-3.75000			9.12164			513962.00000
-3.75000			9.02904			514061.00000
-3.75000			8.99212			514162.00000
-3.75000			8.95902			514261.00000
-3.75000			8.92968			514361.00000
0.00244			-0.03449			515432.00000
0.00244			-0.31161			515534.00000
0.00244			-0.36932			515633.00000
0.00244			-0.27876			515733.00000
0.00244			-0.24063			515834.00000
0.00244			-0.21187			515933.00000
0.00244			-0.18837			516033.00000
0.00244			-0.16909			516134.00000
0.00244			-0.15107			516233.00000
0.00244			-0.13622			516334.00000
3.50000			-6.69193			517115.00000
3.50000			-7.17943			517216.00000
3.50000			-7.26202			517317.00000
3.50000			-7.18503			517416.00000
3.50000			-7.12807			517516.00000
3.50000			-7.08210			517617.00000
3.50000			-7.04415			517716.00000
3.50000			-7.01152			517816.00000
3.50000			-6.98104			517917.00000
3.50000			-6.93167			518016.00000
-3.50000			8.21127			519718.00000
-3.50000			8.59436			519819.00000
-3.50000			8.63691			519920.00000
-3.50000			8.53627			520019.00000
-3.50000			8.45370			520119.00000
-3.50000			8.34775			520220.00000
-3.50000			8.30580			520319.00000
-3.50000			8.26825			520419.00000
-3.50000			8.23626			520520.00000
-3.50000			8.20921			520619.00000
0.00244			-0.05963			521659.00000
0.00244			-0.30729			521761.00000
0.00244			-0.34464			521860.00000
0.00244			-0.29872			521960.00000
0.00244			-0.21667			522061.00000
0.00244			-0.18988			522160.00000
0.00244			-0.16816			522260.00000
0.00244			-0.14936			522361.00000
0.00244			-0.13164			522460.00000
0.00244			-0.11867			522560.00000
3.25000			-6.35409			523312.00000
3.25000			-6.67371			523413.00000
3.25000			-6.70354			523514.00000
3.25000			-6.62789			523613.00000
3.25000			-6.56487			523713.00000
3.25000			-6.51654			523814.00000
3.25000			-6.44365			523913.00000
3.25000			-6.41343			524014.00000
3.25000			-6.38664			524113.00000
3.25000			-6.36400			524213.00000
-3.25000			7.54381			525861.00000
-3.25000			7.90628			525962.00000
-3.25000			7.92948			526063.00000
-3.25000			7.83638			526162.00000
-3.25000			7.76319			526262.00000
-3.25000			7.70742			526363.00000
-3.25000			7.62105			526462.00000
-3.25000			7.58735			526562.00000
-3.25000			7.55837			526663.00000
-3.25000			7.53057			526762.00000
0.00244			-0.15630			527784.00000
0.00244			-0.31274			527885.00000
0.00244			-0.30696			527986.00000
0.00244			-0.25614			528085.00000
0.00244			-0.21655			528185.00000
0.00244			-0.18842			528286.00000
0.00244			-0.16296			528385.00000
0.00244			-0.12792			528485.00000
0.00244			-0.11324			528586.00000
0.00244			-0.10083			528685.00000
3.00000			-5.54748			529412.00000
3.00000			-6.00373			529513.00000
3.00000			-6.11589			529614.00000
3.00000			-5.98687			529713.00000
3.00000			-5.93813			529813.00000
3.00000			-5.89942			529914.00000
3.00000			-5.86534			530013.00000
3.00000			-5.83631			530113.00000
3.00000			-5.80952			530214.00000
3.00000			-5.78662			530313.00000
-3.00000			6.92288			531918.00000
-3.00000			7.23098			532019.00000
-3.00000			7.22040			532119.00000
-3.00000			7.12280			532220.00000
-3.00000			7.05664			532319.00000
-3.00000			7.00763			532420.00000
-3.00000			6.96525			532519.00000
-3.00000			6.89699			532619.00000
-3.00000			6.87057			532720.00000
-3.00000			6.84637			532819.00000
0.00244			0.09867			533805.00000
0.00244			-0.23271			533905.00000
0.00244			-0.30603			534006.00000
0.00244			-0.26478			534105.00000
0.00244			-0.18312			534205.00000
0.00244			-0.15668			534306.00000
0.00244			-0.13674			534405.00000
0.00244			-0.11907			534505.00000
0.00244			-0.10402			534606.00000
0.00244			-0.09095			534705.00000
2.75000			-4.86721			535415.00000
2.75000			-5.37654			535515.00000
2.75000			-5.50707			535615.00000
2.75000			-5.44048			535716.00000
2.75000			-5.39104			535815.00000
2.75000			-5.35193			535915.00000
2.75000			-5.31933			536016.00000
2.75000			-5.29241			536115.00000
2.75000			-5.26796			536215.00000
2.75000			-5.22716			536316.00000
-2.75000			5.84338			537870.00000
-2.75000			6.41193			537972.00000
-2.75000			6.52675			538071.00000
-2.75000			6.44787			538171.00000
-2.75000			6.39072			538272.00000
-2.75000			6.34646			538371.00000
-2.75000			6.31014			538471.00000
-2.75000			6.27912			538572.00000
-2.75000			6.25172			538671.00000
-2.75000			6.20492			538771.00000
0.00244			-0.08921			539739.00000
0.00244			-0.26116			539839.00000
0.00244			-0.26031			539940.00000
0.00244			-0.21348			540039.00000
0.00244			-0.17646			540139.00000
0.00244			-0.14828			540240.00000
0.00244			-0.12604			540339.00000
0.00244			-0.10799			540439.00000
0.00244			-0.07903			540540.00000
0.00244			-0.06863			540639.00000
2.50000			-4.74093			541330.00000
2.50000			-4.96734			541432.00000
2.50000			-4.96500			541531.00000
2.50000			-4.89991			541631.00000
2.50000			-4.84755			541732.00000
2.50000			-4.81058			541831.00000
2.50000			-4.77948			541931.00000
2.50000			-4.72911			542032.00000
2.50000			-4.70835			542131.00000
2.50000			-4.68942			542231.00000
-2.50000			5.33774			543751.00000
-2.50000			5.81259			543851.00000
-2.50000			5.92474			543952.00000
-2.50000			5.77994			544051.00000
-2.50000			5.73112			544151.00000
-2.50000			5.69242			544251.00000
-2.50000			5.65901			544351.00000
-2.50000			5.63131			544452.00000
-2.50000			5.60560			544551.00000
-2.50000			5.58321			544651.00000
0.00244			0.19041			545593.00000
0.00244			-0.16319			545695.00000
0.00244			-0.24885			545794.00000
0.00244			-0.17198			545894.00000
0.00244			-0.13901			545995.00000
0.00244			-0.11601			546094.00000
0.00244			-0.09774			546194.00000
0.00244			-0.08306			546295.00000
0.00244			-0.07149			546394.00000
0.00244			-0.06001			546494.00000
2.25000			-4.09327			547149.00000
2.25000			-4.40331			547250.00000
2.25000			-4.44016			547350.00000
2.25000			-4.38054			547451.00000
2.25000			-4.33067			547550.00000
2.25000			-4.29244			547650.00000
2.25000			-4.23488			547751.00000
2.25000			-4.21254			547850.00000
2.25000			-4.19351			547951.00000
2.25000			-4.17682			548050.00000
-2.25000			4.31173			549496.00000
-2.25000			5.27032			549596.00000
-2.25000			5.26231			549697.00000
-2.25000			5.18947			549798.00000
-2.25000			5.13819			549897.00000
-2.25000			5.09717			549998.00000
-2.25000			5.06223			550097.00000
-2.25000			5.03305			550197.00000
-2.25000			4.98710			550298.00000
-2.25000			4.96798			550397.00000
0.00244			0.24523			551309.00000
0.00244			-0.12785			551411.00000
0.00244			-0.22122			551510.00000
0.00244			-0.14672			551610.00000
0.00244			-0.11827			551711.00000
0.00244			-0.09643			551810.00000
0.00244			-0.07861			551910.00000
0.00244			-0.06416			552011.00000
0.00244			-0.05124			552110.00000
0.00244			-0.04178			552209.00000
2.00000			-3.70154			552840.00000
2.00000			-3.90695			552942.00000
2.00000			-3.89905			553041.00000
2.00000			-3.84205			553141.00000
2.00000			-3.79912			553242.00000
2.00000			-3.76717			553341.00000
2.00000			-3.74136			553441.00000
2.00000			-3.71846			553542.00000
2.00000			-3.68076			553641.00000
2.00000			-3.66585			553741.00000
-2.00000			4.32620			555145.00000
-2.00000			4.63662			555246.00000
-2.00000			4.65248			555345.00000
-2.00000			4.57580			555445.00000
-2.00000			4.52364			555546.00000
-2.00000			4.48548			555645.00000
-2.00000			4.42795			555745.00000
-2.00000			4.40493			555846.00000
-2.00000			4.38464			555945.00000
-2.00000			4.36697			556045.00000
0.00244			0.25114			556934.00000
0.00244			-0.10638			557034.00000
0.00244			-0.18739			557135.00000
0.00244			-0.15703			557234.00000
0.00244			-0.09424			557334.00000
0.00244			-0.07428			557435.00000
0.00244			-0.05847			557534.00000
0.00244			-0.04558			557634.00000
0.00244			-0.03374			557735.00000
0.00244			-0.02444			557834.00000
1.75000			-2.88182			558428.00000
1.75000			-3.30149			558528.00000
1.75000			-3.40749			558629.00000
1.75000			-3.36566			558728.00000
1.75000			-3.28382			558828.00000
1.75000			-3.25547			558929.00000
1.75000			-3.23303			559028.00000
1.75000			-3.21357			559129.00000
1.75000			-3.19678			559228.00000
1.75000			-3.18255			559328.00000
-1.75000			3.14343			560665.00000
-1.75000			4.05304			560764.00000
-1.75000			4.04615			560864.00000
-1.75000			3.98188			560965.00000
-1.75000			3.93676			561064.00000
-1.75000			3.90220			561164.00000
-1.75000			3.87423			561265.00000
-1.75000			3.85143			561364.00000
-1.75000			3.81169			561464.00000
-1.75000			3.79671			561565.00000
0.00244			0.58855			562416.00000
0.00244			-0.14710			562516.00000
0.00244			-0.14760			562616.00000
0.00244			-0.10907			562717.00000
0.00244			-0.08019			562816.00000
0.00244			-0.05925			562916.00000
0.00244			-0.04332			563017.00000
0.00244			-0.02969			563116.00000
0.00244			-0.01901			563216.00000
0.00244			-0.00303			563317.00000
1.50000			-2.41981			563873.00000
1.50000			-2.81830			563974.00000
1.50000			-2.90735			564074.00000
1.50000			-2.86528			564175.00000
1.50000			-2.78919			564274.00000
1.50000			-2.76494			564374.00000
1.50000			-2.74541			564475.00000
1.50000			-2.72774			564574.00000
1.50000			-2.71185			564674.00000
1.50000			-2.69861			564775.00000
-1.50000			3.16771			566037.00000
-1.50000			3.45952			566138.00000
-1.50000			3.46664			566237.00000
-1.50000			3.40433			566337.00000
-1.50000			3.36137			566438.00000
-1.50000			3.33048			566537.00000
-1.50000			3.30622			566638.00000
-1.50000			3.26749			566737.00000
-1.50000			3.24924			566837.00000
-1.50000			3.23459			566938.00000
0.00244			0.44538			567758.00000
0.00244			0.00167			567859.00000
0.00244			-0.12051			567958.00000
0.00244			-0.07147			568060.00000
0.00244			-0.04581			568159.00000
0.00244			-0.02922			568260.00000
0.00244			-0.01625			568359.00000
0.00244			-0.00431			568459.00000
0.00244			0.00439			568560.00000
0.00244			0.01188			568659.00000
1.25000			-1.66048			569191.00000
1.25000			-2.40558			569293.00000
1.25000			-2.40108			569392.00000
1.25000			-2.35783			569492.00000
1.25000			-2.32671			569593.00000
1.25000			-2.30225			569692.00000
1.25000			-2.28310			569792.00000
1.25000			-2.26651			569893.00000
1.25000			-2.24110			569992.00000
1.25000			-2.22976			570092.00000
-1.25000			2.12407			571300.00000
-1.25000			2.91588			571400.00000
-1.25000			2.90102			571500.00000
-1.25000			2.84945			571601.00000
-1.25000			2.81383			571700.00000
-1.25000			2.78729			571801.00000
-1.25000			2.76572			571900.00000
-1.25000			2.74705			572000.00000
-1.25000			2.73134			572101.00000
-1.25000			2.70567			572200.00000
0.00244			0.90699			572978.00000
0.00244			-0.05858			573079.00000
0.00244			-0.08680			573180.00000
0.00244			-0.05579			573279.00000
0.00244			-0.02942			573380.00000
0.00244			-0.01009			573479.00000
0.00244			0.00273			573579.00000
0.00244			0.01231			573679.00000
0.00244			0.02789			573779.00000
0.00244			0.03508			573879.00000
1.00000			-1.19194			574370.00000
1.00000			-1.73423			574470.00000
1.00000			-1.90743			574570.00000
1.00000			-1.86742			574671.00000
1.00000			-1.84130			574770.00000
1.00000			-1.82137			574870.00000
1.00000			-1.80503			574971.00000
1.00000			-1.79123			575070.00000
1.00000			-1.77839			575170.00000
1.00000			-1.75851			575271.00000
-1.00000			1.58335			576399.00000
-1.00000			2.36205			576500.00000
-1.00000			2.34579			576599.00000
-1.00000			2.29698			576699.00000
-1.00000			2.26652			576800.00000
-1.00000			2.24342			576899.00000
-1.00000			2.22607			576999.00000
-1.00000			2.21104			577100.00000
-1.00000			2.19812			577199.00000
-1.00000			2.17570			577299.00000
0.00244			0.63269			578048.00000
0.00244			0.10943			578148.00000
0.00244			-0.04450			578249.00000
0.00244			-0.01150			578348.00000
0.00244			0.00879			578448.00000
0.00244			0.02264			578549.00000
0.00244			0.03349			578648.00000
0.00244			0.04106			578748.00000
0.00244			0.04807			578849.00000
0.00244			0.05368			578948.00000
0.75000			-0.56934			579396.00000
0.75000			-1.42514			579497.00000
0.75000			-1.44085			579597.00000
0.75000			-1.40707			579697.00000
0.75000			-1.38281			579797.00000
0.75000			-1.36391			579897.00000
0.75000			-1.34979			579998.00000
0.75000			-1.33968			580097.00000
0.75000			-1.32040			580197.00000
0.75000			-1.31331			580297.00000
-0.75000			1.00210			581316.00000
-0.75000			1.58588			581417.00000
-0.75000			1.82062			581517.00000
-0.75000			1.78158			581618.00000
-0.75000			1.75585			581717.00000
-0.75000			1.73594			581817.00000
-0.75000			1.71998			581918.00000
-0.75000			1.70809			582017.00000
-0.75000			1.69794			582117.00000
-0.75000			1.68047			582218.00000
0.00244			1.06094			582915.00000
0.00244			0.04053			583016.00000
0.00244			-0.00692			583117.00000
0.00244			0.01562			583216.00000
0.00244			0.03578			583316.00000
0.00244			0.04893			583417.00000
0.00244			0.05750			583516.00000
0.00244			0.06499			583616.00000
0.00244			0.07537			583717.00000
0.00244			0.07979			583816.00000
0.50000			-0.26011			584208.00000
0.50000			-0.73968			584310.00000
0.50000			-0.93941			584409.00000
0.50000			-0.90950			584509.00000
0.50000			-0.89338			584610.00000
0.50000			-0.87933			584709.00000
0.50000			-0.86953			584809.00000
0.50000			-0.86264			584910.00000
0.50000			-0.85525			585009.00000
0.50000			-0.84927			585109.00000
-0.50000			0.70045			586037.00000
-0.50000			1.14524			586138.00000
-0.50000			1.28713			586237.00000
-0.50000			1.26099			586337.00000
-0.50000			1.21514			586438.00000
-0.50000			1.20215			586537.00000
-0.50000			1.19194			586637.00000
-0.50000			1.18274			586738.00000
-0.50000			1.17593			586837.00000
-0.50000			1.16987			586937.00000
0.00244			0.49623			587582.00000
0.00244			0.12054			587683.00000
0.00244			0.04880			587782.00000
0.00244			0.06295			587882.00000
0.00244			0.07597			587983.00000
0.00244			0.08550			588082.00000
0.00244			0.09322			588182.00000
0.00244			0.10264			588283.00000
0.00244			0.10571			588382.00000
0.00244			0.10895			588482.00000
0.25000			0.09410			588808.00000
0.25000			-0.37213			588908.00000
0.25000			-0.43208			589009.00000
0.25000			-0.41569			589108.00000
0.25000			-0.40355			589209.00000
0.25000			-0.39498			589308.00000
0.25000			-0.38804			589408.00000
0.25000			-0.38292			589509.00000
0.25000			-0.37525			589608.00000
0.25000			-0.37100			589708.00000
-0.25000			0.33461			590497.00000
-0.25000			0.62899			590597.00000
-0.25000			0.73157			590697.00000
-0.25000			0.71428			590798.00000
-0.25000			0.69915			590897.00000
-0.25000			0.69047			590997.00000
-0.25000			0.67668			591098.00000
-0.25000			0.67127			591197.00000
-0.25000			0.66655			591297.00000
-0.25000			0.66325			591398.00000
0.00244			0.62847			591974.00000
0.00244			0.20509			592075.00000
0.00244			0.11357			592174.00000
0.00244			0.11760			592274.00000
0.00244			0.12624			592375.00000
0.00244			0.13117			592474.00000
0.00244			0.13592			592574.00000
0.00244			0.13848			592675.00000
0.00244			0.14303			592774.00000
0.00244			0.14303			592874.00000
