# Acquired on 19/06/2024 16:47:12 
# SPIDER: CNT0771454D-RODATO_1e6_CICLI-10mm_RAW
# STATIC MEASUREMENT

  # x_forw [mm]    f_forw [N]    kms_forw [N/mm]
      -10.98145      26.31293            2.39613
      -10.48096      24.29129            2.31766
       -9.98291      22.39290            2.24312
       -9.48486      20.60716            2.17264
       -8.98438      18.91265            2.10506
       -8.48389      17.35462            2.04560
       -7.98584      15.92337            1.99395
       -7.48535      14.57966            1.94776
       -6.98486      13.31677            1.90652
       -6.48438      12.14349            1.87273
       -5.98389      11.00966            1.83988
       -5.48340       9.94331            1.81335
       -4.98535       8.92237            1.78972
       -4.48486       7.93477            1.76923
       -3.98682       6.97948            1.75064
       -3.48633       6.07376            1.74217
       -2.98584       5.20233            1.74233
       -2.48779       4.36575            1.75487
       -1.98731       3.55107            1.78688
       -1.48438       2.77135            1.86702
       -0.98389       2.01830            2.05135
       -0.48340       1.24215            2.56962
        0.48096      -0.57220            1.18971
        0.98633      -1.12723            1.14286
        1.48682      -1.73805            1.16897
        1.98486      -2.43037            1.22445
        2.48779      -3.18372            1.27974
        2.98340      -4.00269            1.34166
        3.48389      -4.87456            1.39917
        3.98438      -5.81375            1.45914
        4.48731      -6.79783            1.51490
        4.98535      -7.81515            1.56762
        5.48340      -8.88404            1.62017
        5.98389     -10.00118            1.67135
        6.48438     -11.19804            1.72693
        6.98486     -12.46271            1.78425
        7.48291     -13.79024            1.84290
        7.98340     -15.20036            1.90400
        8.48389     -16.71106            1.96974
        8.98438     -18.30056            2.03693
        9.48242     -19.94739            2.10362
        9.98291     -21.65990            2.16970
       10.48340     -23.41000            2.23305
       10.98145     -25.10011            2.28568

  # x_back [mm]    f_back [N]    kms_back [N/mm]
      -10.98145      26.22135            2.38779
      -10.48096      23.89057            2.27943
       -9.98535      21.85951            2.18916
       -9.48486      20.00652            2.10931
       -8.98438      18.28846            2.03558
       -8.48633      16.74836            1.97357
       -7.98584      15.31155            1.91734
       -7.48535      14.00193            1.87058
       -6.98486      12.77876            1.82949
       -6.48438      11.63490            1.79430
       -5.98389      10.55145            1.76331
       -5.48340       9.51193            1.73468
       -4.98535       8.53394            1.71180
       -4.48486       7.57782            1.68964
       -3.98438       6.66086            1.67175
       -3.48389       5.77000            1.65620
       -2.98584       4.91886            1.64740
       -2.48535       4.10740            1.65264
       -1.98486       3.34008            1.68278
       -1.48438       2.61780            1.76357
       -0.98389       1.92353            1.95503
       -0.48340       1.24580            2.57717
        0.48584      -0.48543            0.99915
        0.98389      -1.06874            1.08625
        1.48682      -1.68685            1.13454
        1.98731      -2.36742            1.19127
        2.48779      -3.10478            1.24801
        2.98340      -3.90906            1.31027
        3.48389      -4.76579            1.36795
        3.98438      -5.67378            1.42401
        4.48486      -6.62367            1.47689
        4.98535      -7.62364            1.52921
        5.48340      -8.66775            1.58073
        5.98389      -9.77484            1.63353
        6.48438     -10.93442            1.68627
        6.98486     -12.17524            1.74309
        7.48291     -13.46236            1.79908
        7.98340     -14.85197            1.86036
        8.48389     -16.30224            1.92155
        8.98438     -17.85014            1.98680
        9.48486     -19.49753            2.05565
        9.98291     -21.20842            2.12447
       10.48096     -23.00526            2.19496
       10.98145     -24.97082            2.27391