# Acquired on 27/08/2024 16:02:17 
# SPIDER: CNT0771454E-1_PostRodaggio_2024-08-27
# TRACKING MEASUREMENT

  # pos [mm]    force [N]     time [ms]
     0.49072     -0.12073     236.00000
     0.49072     -0.50511     338.00000
     0.49072     -0.71031     437.00000
     0.49072     -0.65353     537.00000
     0.49072     -0.63067     638.00000
     0.49072     -0.61401     737.00000
     0.49072     -0.60055     837.00000
     0.49072     -0.59147     938.00000
     0.49072     -0.58383    1037.00000
     0.49072     -0.57591    1137.00000
    -0.49316      0.53023    1955.00000
    -0.49316      0.86179    2057.00000
    -0.49316      0.94478    2156.00000
    -0.49316      0.91390    2257.00000
    -0.49316      0.89107    2356.00000
    -0.49316      0.87465    2456.00000
    -0.49316      0.85109    2557.00000
    -0.49316      0.84355    2656.00000
    -0.49316      0.83713    2755.00000
    -0.49316      0.83045    2857.00000
    -0.00732      0.54776    3451.00000
    -0.00732      0.13113    3552.00000
    -0.00732     -0.01070    3652.00000
    -0.00732      0.00159    3753.00000
    -0.00732      0.01659    3852.00000
    -0.00732      0.02702    3952.00000
    -0.00732      0.03928    4053.00000
    -0.00732      0.04379    4152.00000
    -0.00732      0.04766    4252.00000
    -0.00732      0.05071    4353.00000
     0.99121     -0.82797    4757.00000
     0.99121     -1.12946    4857.00000
     0.99121     -1.11765    4958.00000
     0.99121     -1.05919    5057.00000
     0.99121     -1.02261    5158.00000
     0.99121     -0.99633    5257.00000
     0.99121     -0.97566    5357.00000
     0.99121     -0.94459    5458.00000
     0.99121     -0.93316    5557.00000
     0.99121     -0.92309    5657.00000
    -0.99365      1.28674    6603.00000
    -0.99365      1.61706    6705.00000
    -0.99365      1.64226    6804.00000
    -0.99365      1.59166    6904.00000
    -0.99365      1.55846    7005.00000
    -0.99365      1.53447    7104.00000
    -0.99365      1.50132    7204.00000
    -0.99365      1.48776    7305.00000
    -0.99365      1.47585    7404.00000
    -0.99365      1.46704    7505.00000
    -0.00732      0.35431    8171.00000
    -0.00732      0.00500    8272.00000
    -0.00732     -0.02742    8372.00000
    -0.00732      0.00343    8472.00000
    -0.00732      0.02483    8573.00000
    -0.00732      0.03928    8672.00000
    -0.00732      0.05036    8772.00000
    -0.00732      0.06481    8873.00000
    -0.00732      0.07097    8972.00000
    -0.00732      0.07648    9072.00000
     1.49170     -1.06692    9531.00000
     1.49170     -1.47012    9632.00000
     1.49170     -1.51948    9733.00000
     1.49170     -1.45280    9832.00000
     1.49170     -1.36733    9932.00000
     1.49170     -1.34180   10033.00000
     1.49170     -1.32081   10132.00000
     1.49170     -1.30171   10232.00000
     1.49170     -1.28647   10333.00000
     1.49170     -1.27272   10432.00000
    -1.49414      1.55684   11494.00000
    -1.49414      2.24111   11595.00000
    -1.49414      2.20078   11696.00000
    -1.49414      2.14553   11795.00000
    -1.49414      2.10906   11895.00000
    -1.49414      2.08078   11996.00000
    -1.49414      2.05868   12095.00000
    -1.49414      2.04074   12195.00000
    -1.49414      2.01194   12296.00000
    -1.49414      2.00068   12395.00000
    -0.00732      0.42366   13112.00000
    -0.00732      0.00159   13213.00000
    -0.00732     -0.06497   13314.00000
    -0.00732     -0.02928   13413.00000
    -0.00732      0.00108   13513.00000
    -0.00732      0.03620   13614.00000
    -0.00732      0.04787   13713.00000
    -0.00732      0.05906   13813.00000
    -0.00732      0.06630   13914.00000
    -0.00732      0.07192   14013.00000
     1.99463     -1.59550   14516.00000
     1.99463     -1.87068   14616.00000
     1.99463     -1.86687   14717.00000
     1.99463     -1.79339   14816.00000
     1.99463     -1.74200   14916.00000
     1.99463     -1.67755   15017.00000
     1.99463     -1.65583   15116.00000
     1.99463     -1.63581   15216.00000
     1.99463     -1.61695   15317.00000
     1.99463     -1.60190   15416.00000
    -1.99463      2.24276   16564.00000
    -1.99463      2.68687   16665.00000
    -1.99463      2.71015   16766.00000
    -1.99463      2.64915   16865.00000
    -1.99463      2.60979   16965.00000
    -1.99463      2.57872   17066.00000
    -1.99463      2.55379   17165.00000
    -1.99463      2.53255   17265.00000
    -1.99463      2.51408   17366.00000
    -1.99463      2.49838   17465.00000
    -0.00732      0.46218   18231.00000
    -0.00732     -0.00532   18331.00000
    -0.00732     -0.10841   18432.00000
    -0.00732     -0.03380   18531.00000
    -0.00732     -0.00802   18631.00000
    -0.00732      0.01121   18731.00000
    -0.00732      0.02653   18831.00000
    -0.00732      0.03817   18931.00000
    -0.00732      0.04809   19032.00000
    -0.00732      0.05584   19131.00000
     2.49512     -2.08094   19664.00000
     2.49512     -2.24816   19765.00000
     2.49512     -2.19705   19865.00000
     2.49512     -2.12181   19966.00000
     2.49512     -2.07300   20065.00000
     2.49512     -2.03731   20165.00000
     2.49512     -2.00689   20266.00000
     2.49512     -1.96256   20365.00000
     2.49512     -1.94524   20465.00000
     2.49512     -1.92876   20566.00000
    -2.49512      3.06457   21773.00000
    -2.49512      3.27715   21874.00000
    -2.49512      3.23525   21975.00000
    -2.49512      3.15583   22074.00000
    -2.49512      3.10306   22174.00000
    -2.49512      3.06573   22275.00000
    -2.49512      3.03528   22374.00000
    -2.49512      2.98741   22474.00000
    -2.49512      2.96877   22575.00000
    -2.49512      2.95213   22674.00000
    -0.00732      0.20318   23471.00000
    -0.00732     -0.11290   23571.00000
    -0.00732     -0.14742   23671.00000
    -0.00732     -0.09742   23772.00000
    -0.00732     -0.05784   23871.00000
    -0.00732     -0.01245   23971.00000
    -0.00732      0.00354   24072.00000
    -0.00732      0.01575   24171.00000
    -0.00732      0.02712   24272.00000
    -0.00732      0.03571   24371.00000
     2.99072     -2.41182   24940.00000
     2.99072     -2.60047   25042.00000
     2.99072     -2.55811   25141.00000
     2.99072     -2.47579   25241.00000
     2.99072     -2.41974   25342.00000
     2.99072     -2.37978   25441.00000
     2.99072     -2.32119   25541.00000
     2.99072     -2.29841   25642.00000
     2.99072     -2.27861   25741.00000
     2.99072     -2.26170   25841.00000
    -2.99316      3.57999   27128.00000
    -2.99316      3.75865   27230.00000
    -2.99316      3.70118   27329.00000
    -2.99316      3.61355   27430.00000
    -2.99316      3.55646   27529.00000
    -2.99316      3.51502   27629.00000
    -2.99316      3.48255   27730.00000
    -2.99316      3.43152   27829.00000
    -2.99316      3.41090   27929.00000
    -2.99316      3.39307   28030.00000
    -0.00732      0.33775   28868.00000
    -0.00732     -0.19532   28969.00000
    -0.00732     -0.15407   29068.00000
    -0.00732     -0.10447   29168.00000
    -0.00732     -0.07148   29269.00000
    -0.00732     -0.04725   29368.00000
    -0.00732     -0.02899   29468.00000
    -0.00732     -0.01456   29569.00000
    -0.00732      0.00862   29668.00000
    -0.00732      0.01686   29768.00000
     3.49121     -2.82048   30381.00000
     3.49121     -2.96215   30481.00000
     3.49121     -2.90312   30581.00000
     3.49121     -2.81938   30682.00000
     3.49121     -2.76297   30781.00000
     3.49121     -2.72091   30881.00000
     3.49121     -2.65890   30982.00000
     3.49121     -2.63632   31081.00000
     3.49121     -2.61538   31181.00000
     3.49121     -2.59709   31282.00000
    -3.49365      4.07872   32654.00000
    -3.49365      4.22107   32755.00000
    -3.49365      4.15064   32856.00000
    -3.49365      4.06057   32955.00000
    -3.49365      4.00049   33055.00000
    -3.49365      3.95594   33156.00000
    -3.49365      3.92003   33255.00000
    -3.49365      3.86422   33355.00000
    -3.49365      3.84250   33456.00000
    -3.49365      3.82302   33555.00000
    -0.00732     -0.04520   34431.00000
    -0.00732     -0.21807   34532.00000
    -0.00732     -0.20272   34632.00000
    -0.00732     -0.14737   34733.00000
    -0.00732     -0.10679   34832.00000
    -0.00732     -0.05781   34932.00000
    -0.00732     -0.04141   35033.00000
    -0.00732     -0.02593   35132.00000
    -0.00732     -0.01324   35232.00000
    -0.00732     -0.00438   35333.00000
     3.99414     -2.88464   35969.00000
     3.99414     -3.32232   36069.00000
     3.99414     -3.23544   36169.00000
     3.99414     -3.15510   36270.00000
     3.99414     -3.10098   36369.00000
     3.99414     -3.06022   36469.00000
     3.99414     -3.02629   36570.00000
     3.99414     -2.99865   36669.00000
     3.99414     -2.97488   36769.00000
     3.99414     -2.93473   36870.00000
    -3.99414      4.46788   38284.00000
    -3.99414      4.67506   38385.00000
    -3.99414      4.61763   38486.00000
    -3.99414      4.51367   38585.00000
    -3.99414      4.44451   38685.00000
    -3.99414      4.39407   38786.00000
    -3.99414      4.32159   38885.00000
    -3.99414      4.29239   38985.00000
    -3.99414      4.26661   39086.00000
    -3.99414      4.24362   39185.00000
    -0.00732      0.08450   40085.00000
    -0.00732     -0.20367   40187.00000
    -0.00732     -0.19897   40286.00000
    -0.00732     -0.14861   40386.00000
    -0.00732     -0.11338   40487.00000
    -0.00732     -0.08737   40586.00000
    -0.00732     -0.06748   40686.00000
    -0.00732     -0.05179   40787.00000
    -0.00732     -0.03804   40886.00000
    -0.00732     -0.01529   40986.00000
     4.49219     -3.37305   41665.00000
     4.49219     -3.65899   41766.00000
     4.49219     -3.57748   41865.00000
     4.49219     -3.50003   41965.00000
     4.49219     -3.44686   42066.00000
     4.49219     -3.40447   42165.00000
     4.49219     -3.37133   42265.00000
     4.49219     -3.34274   42366.00000
     4.49219     -3.31705   42465.00000
     4.49219     -3.27521   42565.00000
    -4.49219      4.64405   44048.00000
    -4.49219      5.09461   44149.00000
    -4.49219      4.99322   44250.00000
    -4.49219      4.89659   44349.00000
    -4.49219      4.83102   44449.00000
    -4.49219      4.78139   44550.00000
    -4.49219      4.74068   44649.00000
    -4.49219      4.70521   44749.00000
    -4.49219      4.64996   44850.00000
    -4.49219      4.62708   44949.00000
    -0.00732      0.03239   45868.00000
    -0.00732     -0.24055   45969.00000
    -0.00732     -0.28164   46069.00000
    -0.00732     -0.17020   46170.00000
    -0.00732     -0.13421   46269.00000
    -0.00732     -0.10839   46369.00000
    -0.00732     -0.08748   46470.00000
    -0.00732     -0.06964   46569.00000
    -0.00732     -0.05568   46669.00000
    -0.00732     -0.04325   46770.00000
     4.99268     -3.64575   47472.00000
     4.99268     -4.05654   47573.00000
     4.99268     -3.96167   47672.00000
     4.99268     -3.87127   47772.00000
     4.99268     -3.81200   47873.00000
     4.99268     -3.76634   47972.00000
     4.99268     -3.72982   48072.00000
     4.99268     -3.69870   48173.00000
     4.99268     -3.64834   48272.00000
     4.99268     -3.62722   48372.00000
    -4.99268      5.16320   49910.00000
    -4.99268      5.49522   50012.00000
    -4.99268      5.38165   50111.00000
    -4.99268      5.28590   50211.00000
    -4.99268      5.22074   50312.00000
    -4.99268      5.16979   50411.00000
    -4.99268      5.12819   50512.00000
    -4.99268      5.09366   50611.00000
    -4.99268      5.06227   50711.00000
    -4.99268      5.01343   50812.00000
    -0.00732      0.02747   51766.00000
    -0.00732     -0.30768   51866.00000
    -0.00732     -0.25386   51967.00000
    -0.00732     -0.19783   52066.00000
    -0.00732     -0.15953   52166.00000
    -0.00732     -0.13075   52267.00000
    -0.00732     -0.10841   52366.00000
    -0.00732     -0.09029   52466.00000
    -0.00732     -0.06259   52567.00000
    -0.00732     -0.05249   52666.00000
     5.49072     -4.24949   53388.00000
     5.49072     -4.44519   53488.00000
     5.49072     -4.39318   53589.00000
     5.49072     -4.28490   53688.00000
     5.49072     -4.20913   53788.00000
     5.49072     -4.11120   53889.00000
     5.49072     -4.07591   53988.00000
     5.49072     -4.04601   54088.00000
     5.49072     -4.01932   54189.00000
     5.49072     -3.99684   54288.00000
    -5.49316      5.60663   55868.00000
    -5.49316      5.93892   55968.00000
    -5.49316      5.93886   56069.00000
    -5.49316      5.71304   56168.00000
    -5.49316      5.64561   56268.00000
    -5.49316      5.59326   56369.00000
    -5.49316      5.55036   56468.00000
    -5.49316      5.51213   56568.00000
    -5.49316      5.48017   56669.00000
    -5.49316      5.45305   56768.00000
    -0.00732     -0.24662   57766.00000
    -0.00732     -0.32999   57867.00000
    -0.00732     -0.28855   57967.00000
    -0.00732     -0.22814   58067.00000
    -0.00732     -0.18546   58167.00000
    -0.00732     -0.12965   58267.00000
    -0.00732     -0.10966   58368.00000
    -0.00732     -0.09399   58467.00000
    -0.00732     -0.07994   58567.00000
    -0.00732     -0.06835   58668.00000
     5.99365     -4.74038   59419.00000
     5.99365     -4.84671   59521.00000
     5.99365     -4.76164   59620.00000
     5.99365     -4.65591   59720.00000
     5.99365     -4.58394   59821.00000
     5.99365     -4.53220   59920.00000
     5.99365     -4.45261   60020.00000
     5.99365     -4.42301   60121.00000
     5.99365     -4.39596   60220.00000
     5.99365     -4.37146   60320.00000
    -5.99365      6.35485   61950.00000
    -5.99365      6.43868   62050.00000
    -5.99365      6.32505   62150.00000
    -5.99365      6.20818   62251.00000
    -5.99365      6.13005   62350.00000
    -5.99365      6.07167   62450.00000
    -5.99365      6.02302   62551.00000
    -5.99365      5.94797   62650.00000
    -5.99365      5.91717   62750.00000
    -5.99365      5.89032   62851.00000
    -0.00732     -0.12957   63848.00000
    -0.00732     -0.33115   63949.00000
    -0.00732     -0.34137   64050.00000
    -0.00732     -0.21926   64149.00000
    -0.00732     -0.18279   64249.00000
    -0.00732     -0.15534   64349.00000
    -0.00732     -0.13240   64449.00000
    -0.00732     -0.11428   64550.00000
    -0.00732     -0.09809   64649.00000
    -0.00732     -0.08467   64749.00000
     6.49414     -4.93284   65539.00000
     6.49414     -5.23782   65639.00000
     6.49414     -5.12403   65739.00000
     6.49414     -5.02807   65840.00000
     6.49414     -4.96202   65939.00000
     6.49414     -4.91115   66039.00000
     6.49414     -4.86935   66140.00000
     6.49414     -4.83559   66239.00000
     6.49414     -4.77996   66339.00000
     6.49414     -4.75578   66440.00000
    -6.49170      6.74903   68129.00000
    -6.49170      6.96715   68230.00000
    -6.49170      6.90369   68329.00000
    -6.49170      6.76880   68429.00000
    -6.49170      6.60477   68530.00000
    -6.49170      6.55087   68629.00000
    -6.49170      6.50605   68729.00000
    -6.49170      6.46734   68830.00000
    -6.49170      6.43492   68929.00000
    -6.49170      6.40518   69030.00000
    -0.00732     -0.24319   70057.00000
    -0.00732     -0.36708   70158.00000
    -0.00732     -0.34169   70258.00000
    -0.00732     -0.27523   70359.00000
    -0.00732     -0.18989   70457.00000
    -0.00732     -0.16263   70558.00000
    -0.00732     -0.14126   70659.00000
    -0.00732     -0.12359   70758.00000
    -0.00732     -0.10787   70858.00000
    -0.00732     -0.09504   70959.00000
     6.99463     -5.36290   71747.00000
     6.99463     -5.68614   71848.00000
     6.99463     -5.68922   71947.00000
     6.99463     -5.46531   72047.00000
     6.99463     -5.39745   72148.00000
     6.99463     -5.34528   72247.00000
     6.99463     -5.30190   72347.00000
     6.99463     -5.26548   72448.00000
     6.99463     -5.23425   72547.00000
     6.99463     -5.20537   72647.00000
    -6.99463      7.07246   74381.00000
    -6.99463      7.51775   74481.00000
    -6.99463      7.40518   74582.00000
    -6.99463      7.28704   74681.00000
    -6.99463      7.20718   74781.00000
    -6.99463      7.14507   74882.00000
    -6.99463      7.09450   74981.00000
    -6.99463      7.05182   75081.00000
    -6.99463      7.01356   75182.00000
    -6.99463      6.97990   75281.00000
    -0.00732     -0.34526   76345.00000
    -0.00732     -0.38308   76446.00000
    -0.00732     -0.32964   76547.00000
    -0.00732     -0.26940   76646.00000
    -0.00732     -0.22436   76746.00000
    -0.00732     -0.19229   76847.00000
    -0.00732     -0.16898   76946.00000
    -0.00732     -0.13297   77046.00000
    -0.00732     -0.11784   77147.00000
    -0.00732     -0.10333   77246.00000
     7.49268     -5.85779   78059.00000
     7.49268     -6.16420   78161.00000
     7.49268     -6.15129   78260.00000
     7.49268     -5.92168   78360.00000
     7.49268     -5.85180   78461.00000
     7.49268     -5.79679   78560.00000
     7.49268     -5.75192   78660.00000
     7.49268     -5.71426   78761.00000
     7.49268     -5.68165   78860.00000
     7.49268     -5.65212   78960.00000
    -7.49512      8.00367   80742.00000
    -7.49512      8.25446   80842.00000
    -7.49512      8.16193   80943.00000
    -7.49512      8.00775   81042.00000
    -7.49512      7.90607   81142.00000
    -7.49512      7.83232   81243.00000
    -7.49512      7.72347   81342.00000
    -7.49512      7.67998   81442.00000
    -7.49512      7.64178   81543.00000
    -7.49512      7.60833   81642.00000
    -0.00732     -0.23009   82724.00000
    -0.00732     -0.38875   82825.00000
    -0.00732     -0.32694   82925.00000
    -0.00732     -0.27034   83026.00000
    -0.00732     -0.22931   83125.00000
    -0.00732     -0.19902   83225.00000
    -0.00732     -0.17503   83326.00000
    -0.00732     -0.15488   83425.00000
    -0.00732     -0.13940   83525.00000
    -0.00732     -0.11252   83626.00000
     7.99316     -6.36968   84450.00000
     7.99316     -6.67322   84550.00000
     7.99316     -6.64375   84651.00000
     7.99316     -6.50376   84750.00000
     7.99316     -6.32983   84850.00000
     7.99316     -6.27415   84951.00000
     7.99316     -6.22769   85050.00000
     7.99316     -6.18816   85150.00000
     7.99316     -6.15434   85251.00000
     7.99316     -6.12406   85350.00000
    -7.99316      8.55122   87168.00000
    -7.99316      8.99409   87269.00000
    -7.99316      8.97663   87369.00000
    -7.99316      8.80622   87470.00000
    -7.99316      8.59842   87569.00000
    -7.99316      8.53050   87669.00000
    -7.99316      8.47604   87770.00000
    -7.99316      8.42746   87869.00000
    -7.99316      8.38497   87969.00000
    -7.99316      8.34828   88070.00000
    -0.00732     -0.35020   89177.00000
    -0.00732     -0.42003   89277.00000
    -0.00732     -0.37694   89377.00000
    -0.00732     -0.31008   89478.00000
    -0.00732     -0.26170   89577.00000
    -0.00732     -0.19951   89677.00000
    -0.00732     -0.17755   89778.00000
    -0.00732     -0.15874   89877.00000
    -0.00732     -0.14326   89977.00000
    -0.00732     -0.12997   90078.00000
     8.49365     -6.99100   90927.00000
     8.49365     -7.22515   91028.00000
     8.49365     -7.14915   91128.00000
     8.49365     -7.00038   91229.00000
     8.49365     -6.90134   91328.00000
     8.49365     -6.77488   91428.00000
     8.49365     -6.72825   91529.00000
     8.49365     -6.68843   91628.00000
     8.49365     -6.65453   91729.00000
     8.49365     -6.62270   91828.00000
    -8.49365      9.12884   93682.00000
    -8.49365      9.79044   93784.00000
    -8.49365      9.72096   93883.00000
    -8.49365      9.57316   93983.00000
    -8.49365      9.47428   94084.00000
    -8.49365      9.39769   94183.00000
    -8.49365      9.33343   94283.00000
    -8.49365      9.27942   94384.00000
    -8.49365      9.23269   94483.00000
    -8.49365      9.15431   94583.00000
    -0.00732     -0.28274   95709.00000
    -0.00732     -0.42033   95810.00000
    -0.00732     -0.35603   95911.00000
    -0.00732     -0.29566   96010.00000
    -0.00732     -0.25467   96110.00000
    -0.00732     -0.22431   96211.00000
    -0.00732     -0.19970   96310.00000
    -0.00732     -0.17989   96410.00000
    -0.00732     -0.16196   96511.00000
    -0.00732     -0.13445   96610.00000
     8.99414     -7.65996   97496.00000
     8.99414     -7.79309   97597.00000
     8.99414     -7.68781   97697.00000
     8.99414     -7.54906   97798.00000
     8.99414     -7.45310   97897.00000
     8.99414     -7.38270   97997.00000
     8.99414     -7.27853   98098.00000
     8.99414     -7.23774   98197.00000
     8.99414     -7.20159   98297.00000
     8.99414     -7.17063   98398.00000
    -8.99170     10.66220  100294.00000
    -8.99170     10.90229  100396.00000
    -8.99170     10.76961  100495.00000
    -8.99170     10.59172  100595.00000
    -8.99170     10.47450  100696.00000
    -8.99170     10.38686  100795.00000
    -8.99170     10.31546  100895.00000
    -8.99170     10.20240  100996.00000
    -8.99170     10.15788  101095.00000
    -8.99170     10.11765  101195.00000
    -0.00732     -0.38943  102322.00000
    -0.00732     -0.45726  102422.00000
    -0.00732     -0.40691  102523.00000
    -0.00732     -0.33691  102622.00000
    -0.00732     -0.28596  102722.00000
    -0.00732     -0.24962  102823.00000
    -0.00732     -0.19937  102922.00000
    -0.00732     -0.18006  103022.00000
    -0.00732     -0.16296  103123.00000
    -0.00732     -0.15012  103222.00000
     9.49463     -8.01721  104103.00000
     9.49463     -8.40380  104203.00000
     9.49463     -8.38281  104303.00000
     9.49463     -8.21826  104404.00000
     9.49463     -8.01426  104503.00000
     9.49463     -7.94770  104603.00000
     9.49463     -7.89221  104704.00000
     9.49463     -7.84577  104803.00000
     9.49463     -7.80579  104903.00000
     9.49463     -7.77132  105004.00000
    -9.49463     11.00511  106925.00000
    -9.49463     11.89183  107026.00000
    -9.49463     11.84807  107126.00000
    -9.49463     11.67268  107227.00000
    -9.49463     11.55630  107326.00000
    -9.49463     11.46448  107426.00000
    -9.49463     11.38891  107527.00000
    -9.49463     11.32543  107626.00000
    -9.49463     11.27132  107726.00000
    -9.49463     11.22285  107827.00000
    -0.00732     -0.43152  108982.00000
    -0.00732     -0.46431  109083.00000
    -0.00732     -0.40682  109184.00000
    -0.00732     -0.34023  109283.00000
    -0.00732     -0.29206  109383.00000
    -0.00732     -0.25756  109484.00000
    -0.00732     -0.20578  109583.00000
    -0.00732     -0.18614  109683.00000
    -0.00732     -0.17060  109784.00000
    -0.00732     -0.15739  109883.00000
     9.99268     -8.54458  110793.00000
     9.99268     -9.03339  110895.00000
     9.99268     -8.92682  110994.00000
     9.99268     -8.78688  111094.00000
     9.99268     -8.69216  111195.00000
     9.99268     -8.62003  111294.00000
     9.99268     -8.55981  111394.00000
     9.99268     -8.50857  111495.00000
     9.99268     -8.46491  111594.00000
     9.99268     -8.39129  111694.00000
    -9.99268     12.74736  113647.00000
    -9.99268     13.31968  113748.00000
    -9.99268     13.26508  113847.00000
    -9.99268     13.03482  113947.00000
    -9.99268     12.87854  114048.00000
    -9.99268     12.67422  114147.00000
    -9.99268     12.59804  114247.00000
    -9.99268     12.53383  114348.00000
    -9.99268     12.47723  114447.00000
    -9.99268     12.42760  114547.00000
    -0.00732     -0.46231  115740.00000
    -0.00732     -0.47366  115841.00000
    -0.00732     -0.41088  115940.00000
    -0.00732     -0.34590  116040.00000
    -0.00732     -0.30017  116141.00000
    -0.00732     -0.26564  116240.00000
    -0.00732     -0.21637  116340.00000
    -0.00732     -0.19678  116441.00000
    -0.00732     -0.17995  116540.00000
    -0.00732     -0.16628  116640.00000
    10.49316     -9.68203  117581.00000
    10.49316     -9.84364  117682.00000
    10.49316     -9.71466  117782.00000
    10.49316     -9.54941  117883.00000
    10.49316     -9.43781  117982.00000
    10.49316     -9.35533  118082.00000
    10.49316     -9.23287  118183.00000
    10.49316     -9.18508  118282.00000
    10.49316     -9.14388  118382.00000
    10.49316     -9.10531  118483.00000
   -10.49072     14.33886  120482.00000
   -10.49072     14.79015  120584.00000
   -10.49072     14.66996  120683.00000
   -10.49072     14.43271  120784.00000
   -10.49072     14.27261  120883.00000
   -10.49072     14.15469  120983.00000
   -10.49072     13.97761  121084.00000
   -10.49072     13.90796  121183.00000
   -10.49072     13.84610  121283.00000
   -10.49072     13.79190  121384.00000
    -0.00732     -0.31073  122563.00000
    -0.00732     -0.49457  122664.00000
    -0.00732     -0.42544  122764.00000
    -0.00732     -0.35790  122864.00000
    -0.00732     -0.31168  122965.00000
    -0.00732     -0.27634  123064.00000
    -0.00732     -0.24905  123164.00000
    -0.00732     -0.22650  123265.00000
    -0.00732     -0.18992  123364.00000
    -0.00732     -0.17541  123464.00000
    10.99365    -10.52748  124412.00000
    10.99365    -10.68076  124513.00000
    10.99365    -10.51934  124613.00000
    10.99365    -10.34712  124714.00000
    10.99365    -10.23390  124813.00000
    10.99365    -10.14923  124913.00000
    10.99365    -10.07894  125014.00000
    10.99365     -9.96915  125113.00000
    10.99365     -9.92357  125213.00000
    10.99365     -9.88359  125314.00000
   -10.99365     15.16088  127369.00000
   -10.99365     16.24962  127469.00000
   -10.99365     16.15083  127570.00000
   -10.99365     15.92974  127669.00000
   -10.99365     15.77826  127769.00000
   -10.99365     15.65972  127870.00000
   -10.99365     15.56249  127969.00000
   -10.99365     15.47855  128069.00000
   -10.99365     15.40512  128170.00000
   -10.99365     15.33994  128269.00000
    -0.00732     -0.50900  129499.00000
    -0.00732     -0.49162  129600.00000
    -0.00732     -0.42268  129699.00000
    -0.00732     -0.36222  129801.00000
    -0.00732     -0.31800  129900.00000
    -0.00732     -0.28371  130001.00000
    -0.00732     -0.25697  130100.00000
    -0.00732     -0.23452  130200.00000
    -0.00732     -0.19835  130301.00000
    -0.00732     -0.18403  130400.00000
    10.99365    -10.40769  131347.00000
    10.99365    -10.58994  131447.00000
    10.99365    -10.44740  131548.00000
    10.99365    -10.27750  131647.00000
    10.99365    -10.16415  131747.00000
    10.99365    -10.07924  131848.00000
    10.99365    -10.01178  131947.00000
    10.99365     -9.90380  132048.00000
    10.99365     -9.86012  132147.00000
    10.99365     -9.82192  132247.00000
   -10.99121     14.95105  134303.00000
   -10.99121     16.08642  134404.00000
   -10.99121     16.04382  134503.00000
   -10.99121     15.82502  134603.00000
   -10.99121     15.67746  134704.00000
   -10.99121     15.56211  134803.00000
   -10.99121     15.46464  134903.00000
   -10.99121     15.38362  135004.00000
   -10.99121     15.31508  135103.00000
   -10.99121     15.19511  135203.00000
    -0.00732     -0.51340  136432.00000
    -0.00732     -0.49957  136534.00000
    -0.00732     -0.43049  136633.00000
    -0.00732     -0.36735  136733.00000
    -0.00732     -0.32308  136834.00000
    -0.00732     -0.29001  136933.00000
    -0.00732     -0.26308  137033.00000
    -0.00732     -0.22115  137134.00000
    -0.00732     -0.20429  137233.00000
    -0.00732     -0.19000  137333.00000
    10.49072     -9.48966  138274.00000
    10.49072     -9.59131  138376.00000
    10.49072     -9.44457  138475.00000
    10.49072     -9.29247  138576.00000
    10.49072     -9.19297  138675.00000
    10.49072     -9.11844  138775.00000
    10.49072     -9.05687  138876.00000
    10.49072     -8.96029  138975.00000
    10.49072     -8.92176  139075.00000
    10.49072     -8.88802  139176.00000
   -10.49072     14.14554  141169.00000
   -10.49072     14.44824  141271.00000
   -10.49072     14.27985  141370.00000
   -10.49072     14.06619  141470.00000
   -10.49072     13.92498  141571.00000
   -10.49072     13.81738  141670.00000
   -10.49072     13.72996  141770.00000
   -10.49072     13.59277  141871.00000
   -10.49072     13.53839  141970.00000
   -10.49072     13.48830  142070.00000
    -0.00732     -0.37957  143251.00000
    -0.00732     -0.51113  143352.00000
    -0.00732     -0.42722  143453.00000
    -0.00732     -0.36279  143552.00000
    -0.00732     -0.31838  143652.00000
    -0.00732     -0.28458  143753.00000
    -0.00732     -0.25883  143852.00000
    -0.00732     -0.23657  143953.00000
    -0.00732     -0.21742  144052.00000
    -0.00732     -0.18719  144152.00000
     9.99512     -8.46888  145063.00000
     9.99512     -8.76219  145164.00000
     9.99512     -8.70578  145264.00000
     9.99512     -8.54676  145365.00000
     9.99512     -8.43281  145464.00000
     9.99512     -8.28580  145564.00000
     9.99512     -8.23552  145665.00000
     9.99512     -8.19041  145764.00000
     9.99512     -8.15156  145864.00000
     9.99512     -8.11709  145965.00000
    -9.99268     12.26362  147953.00000
    -9.99268     12.84504  148054.00000
    -9.99268     12.80906  148153.00000
    -9.99268     12.58859  148253.00000
    -9.99268     12.43706  148354.00000
    -9.99268     12.24398  148453.00000
    -9.99268     12.17244  148553.00000
    -9.99268     12.11252  148654.00000
    -9.99268     12.05989  148753.00000
    -9.99268     12.01262  148853.00000
    -0.00732     -0.48571  150046.00000
    -0.00732     -0.49511  150147.00000
    -0.00732     -0.43225  150246.00000
    -0.00732     -0.36679  150346.00000
    -0.00732     -0.31943  150447.00000
    -0.00732     -0.28555  150546.00000
    -0.00732     -0.23636  150646.00000
    -0.00732     -0.21658  150747.00000
    -0.00732     -0.19956  150846.00000
    -0.00732     -0.18530  150946.00000
     9.49463     -7.65485  151827.00000
     9.49463     -8.02296  151927.00000
     9.49463     -7.99662  152028.00000
     9.49463     -7.83596  152127.00000
     9.49463     -7.64313  152227.00000
     9.49463     -7.58205  152328.00000
     9.49463     -7.53131  152427.00000
     9.49463     -7.48857  152528.00000
     9.49463     -7.45127  152627.00000
     9.49463     -7.41901  152727.00000
    -9.49463     10.53361  154649.00000
    -9.49463     11.36619  154750.00000
    -9.49463     11.50921  154849.00000
    -9.49463     11.14743  154949.00000
    -9.49463     11.03866  155050.00000
    -9.49463     10.95378  155149.00000
    -9.49463     10.88513  155249.00000
    -9.49463     10.82689  155350.00000
    -9.49463     10.77569  155449.00000
    -9.49463     10.73025  155549.00000
    -0.00732     -0.46882  156705.00000
    -0.00732     -0.49019  156806.00000
    -0.00732     -0.42803  156905.00000
    -0.00732     -0.35863  157005.00000
    -0.00732     -0.30892  157106.00000
    -0.00732     -0.27504  157205.00000
    -0.00732     -0.24908  157305.00000
    -0.00732     -0.20713  157406.00000
    -0.00732     -0.19059  157505.00000
    -0.00732     -0.17627  157606.00000
     8.99414     -7.15307  158491.00000
     8.99414     -7.36622  158593.00000
     8.99414     -7.30106  158692.00000
     8.99414     -7.16185  158792.00000
     8.99414     -6.99225  158893.00000
     8.99414     -6.93689  158992.00000
     8.99414     -6.89078  159092.00000
     8.99414     -6.85247  159193.00000
     8.99414     -6.81894  159292.00000
     8.99414     -6.78958  159392.00000
    -8.99170      9.94070  161290.00000
    -8.99170     10.30514  161391.00000
    -8.99170     10.23828  161492.00000
    -8.99170     10.05917  161591.00000
    -8.99170      9.93573  161691.00000
    -8.99170      9.77929  161792.00000
    -8.99170      9.72093  161891.00000
    -8.99170      9.67203  161991.00000
    -8.99170      9.62913  162092.00000
    -8.99170      9.59096  162191.00000
    -0.00732     -0.39397  163317.00000
    -0.00732     -0.48782  163418.00000
    -0.00732     -0.45291  163517.00000
    -0.00732     -0.37646  163617.00000
    -0.00732     -0.28161  163718.00000
    -0.00732     -0.25203  163817.00000
    -0.00732     -0.22882  163917.00000
    -0.00732     -0.20832  164018.00000
    -0.00732     -0.19003  164117.00000
    -0.00732     -0.17547  164217.00000
     8.49121     -6.51607  165067.00000
     8.49121     -6.75889  165168.00000
     8.49121     -6.70453  165267.00000
     8.49121     -6.56722  165367.00000
     8.49121     -6.47115  165468.00000
     8.49121     -6.35020  165567.00000
     8.49121     -6.30544  165667.00000
     8.49121     -6.26875  165768.00000
     8.49121     -6.23771  165867.00000
     8.49121     -6.20880  165968.00000
    -8.49365      8.51429  167821.00000
    -8.49365      9.16752  167922.00000
    -8.49365      9.12740  168023.00000
    -8.49365      8.98325  168122.00000
    -8.49365      8.88956  168222.00000
    -8.49365      8.81735  168323.00000
    -8.49365      8.75767  168422.00000
    -8.49365      8.70815  168522.00000
    -8.49365      8.66644  168623.00000
    -8.49365      8.59574  168722.00000
    -0.00732     -0.33153  169848.00000
    -0.00732     -0.45526  169949.00000
    -0.00732     -0.38881  170048.00000
    -0.00732     -0.32883  170148.00000
    -0.00732     -0.28593  170249.00000
    -0.00732     -0.25435  170348.00000
    -0.00732     -0.22836  170449.00000
    -0.00732     -0.20764  170548.00000
    -0.00732     -0.17527  170648.00000
    -0.00732     -0.16239  170749.00000
     7.99072     -5.88429  171579.00000
     7.99072     -6.18333  171680.00000
     7.99072     -6.16823  171781.00000
     7.99072     -5.93222  171880.00000
     7.99072     -5.86503  171980.00000
     7.99072     -5.81289  172081.00000
     7.99072     -5.77005  172180.00000
     7.99072     -5.73436  172280.00000
     7.99072     -5.70291  172381.00000
     7.99072     -5.67449  172480.00000
    -7.99316      7.96221  174286.00000
    -7.99316      8.36668  174387.00000
    -7.99316      8.34699  174486.00000
    -7.99316      8.18530  174587.00000
    -7.99316      7.99290  174686.00000
    -7.99316      7.92984  174786.00000
    -7.99316      7.87884  174887.00000
    -7.99316      7.83480  174986.00000
    -7.99316      7.79771  175086.00000
    -7.99316      7.76529  175187.00000
    -0.00732     -0.40796  176294.00000
    -0.00732     -0.45904  176393.00000
    -0.00732     -0.40950  176493.00000
    -0.00732     -0.34172  176594.00000
    -0.00732     -0.29263  176693.00000
    -0.00732     -0.23144  176793.00000
    -0.00732     -0.20964  176893.00000
    -0.00732     -0.19092  176993.00000
    -0.00732     -0.17482  177093.00000
    -0.00732     -0.16179  177194.00000
     7.49512     -5.28663  178006.00000
     7.49512     -5.67647  178106.00000
     7.49512     -5.55465  178207.00000
     7.49512     -5.44970  178308.00000
     7.49512     -5.38030  178407.00000
     7.49512     -5.32616  178507.00000
     7.49512     -5.28350  178608.00000
     7.49512     -5.24822  178707.00000
     7.49512     -5.19132  178807.00000
     7.49512     -5.16806  178908.00000
    -7.49512      7.26997  180689.00000
    -7.49512      7.59793  180790.00000
    -7.49512      7.56008  180890.00000
    -7.49512      7.40999  180991.00000
    -7.49512      7.23409  181090.00000
    -7.49512      7.17649  181190.00000
    -7.49512      7.12886  181291.00000
    -7.49512      7.08937  181390.00000
    -7.49512      7.05495  181490.00000
    -7.49512      7.02472  181591.00000
    -0.00732     -0.41863  182673.00000
    -0.00732     -0.43767  182773.00000
    -0.00732     -0.37770  182874.00000
    -0.00732     -0.31508  182973.00000
    -0.00732     -0.27083  183072.00000
    -0.00732     -0.24003  183174.00000
    -0.00732     -0.21439  183273.00000
    -0.00732     -0.17614  183373.00000
    -0.00732     -0.16201  183474.00000
    -0.00732     -0.14858  183573.00000
     6.99463     -5.05619  184363.00000
     6.99463     -5.21710  184463.00000
     6.99463     -5.14610  184563.00000
     6.99463     -5.02912  184664.00000
     6.99463     -4.95005  184763.00000
     6.99463     -4.84890  184863.00000
     6.99463     -4.81295  184964.00000
     6.99463     -4.78139  185063.00000
     6.99463     -4.75441  185163.00000
     6.99463     -4.73133  185264.00000
    -6.99463      6.67795  186995.00000
    -6.99463      6.92479  187097.00000
    -6.99463      6.86168  187196.00000
    -6.99463      6.72390  187296.00000
    -6.99463      6.63127  187397.00000
    -6.99463      6.51221  187496.00000
    -6.99463      6.46923  187596.00000
    -6.99463      6.43122  187697.00000
    -6.99463      6.39921  187796.00000
    -6.99463      6.37168  187896.00000
    -0.00732     -0.29684  188961.00000
    -0.00732     -0.42128  189063.00000
    -0.00732     -0.34196  189162.00000
    -0.00732     -0.28771  189262.00000
    -0.00732     -0.24943  189362.00000
    -0.00732     -0.21966  189462.00000
    -0.00732     -0.19567  189563.00000
    -0.00732     -0.17673  189662.00000
    -0.00732     -0.16169  189762.00000
    -0.00732     -0.13529  189863.00000
     6.49414     -4.46407  190644.00000
     6.49414     -4.74979  190745.00000
     6.49414     -4.64361  190846.00000
     6.49414     -4.55057  190945.00000
     6.49414     -4.48871  191045.00000
     6.49414     -4.44194  191146.00000
     6.49414     -4.40437  191245.00000
     6.49414     -4.37265  191345.00000
     6.49414     -4.32165  191446.00000
     6.49414     -4.30011  191545.00000
    -6.49170      6.13332  193235.00000
    -6.49170      6.32297  193336.00000
    -6.49170      6.26046  193436.00000
    -6.49170      6.13910  193537.00000
    -6.49170      5.98955  193636.00000
    -6.49170      5.94038  193736.00000
    -6.49170      5.89861  193837.00000
    -6.49170      5.86382  193936.00000
    -6.49170      5.83531  194036.00000
    -6.49170      5.80989  194137.00000
    -0.00732     -0.30892  195165.00000
    -0.00732     -0.41501  195265.00000
    -0.00732     -0.38405  195366.00000
    -0.00732     -0.31513  195465.00000
    -0.00732     -0.22882  195565.00000
    -0.00732     -0.20156  195666.00000
    -0.00732     -0.18014  195765.00000
    -0.00732     -0.16158  195865.00000
    -0.00732     -0.14680  195966.00000
    -0.00732     -0.13400  196065.00000
     5.99365     -4.23968  196818.00000
     5.99365     -4.35252  196918.00000
     5.99365     -4.27742  197018.00000
     5.99365     -4.17471  197119.00000
     5.99365     -4.10447  197218.00000
     5.99365     -4.01526  197318.00000
     5.99365     -3.98333  197419.00000
     5.99365     -3.95515  197518.00000
     5.99365     -3.93060  197618.00000
     5.99365     -3.90909  197719.00000
    -5.99121      5.69597  199347.00000
    -5.99121      5.79925  199447.00000
    -5.99121      5.70434  199548.00000
    -5.99121      5.59231  199647.00000
    -5.99121      5.51788  199747.00000
    -5.99121      5.46267  199848.00000
    -5.99121      5.41847  199947.00000
    -5.99121      5.35028  200047.00000
    -5.99121      5.32373  200148.00000
    -5.99121      5.29974  200247.00000
    -0.00732     -0.18187  201244.00000
    -0.00732     -0.37433  201346.00000
    -0.00732     -0.32089  201445.00000
    -0.00732     -0.26378  201545.00000
    -0.00732     -0.22444  201646.00000
    -0.00732     -0.19494  201745.00000
    -0.00732     -0.17233  201845.00000
    -0.00732     -0.15299  201946.00000
    -0.00732     -0.13778  202045.00000
    -0.00732     -0.11130  202145.00000
     5.49072     -3.84758  202867.00000
     5.49072     -3.95783  202968.00000
     5.49072     -3.88286  203067.00000
     5.49072     -3.78277  203167.00000
     5.49072     -3.71631  203268.00000
     5.49072     -3.66955  203368.00000
     5.49072     -3.60271  203467.00000
     5.49072     -3.57640  203568.00000
     5.49072     -3.55314  203667.00000
     5.49072     -3.53293  203767.00000
    -5.49316      5.08378  205348.00000
    -5.49316      5.31948  205449.00000
    -5.49316      5.28620  205548.00000
    -5.49316      5.16801  205649.00000
    -5.49316      5.02377  205748.00000
    -5.49316      4.97817  205848.00000
    -5.49316      4.94057  205949.00000
    -5.49316      4.90874  206048.00000
    -5.49316      4.88054  206148.00000
    -5.49316      4.85763  206249.00000
    -0.00732     -0.33207  207245.00000
    -0.00732     -0.37092  207346.00000
    -0.00732     -0.31611  207446.00000
    -0.00732     -0.25740  207546.00000
    -0.00732     -0.21718  207646.00000
    -0.00732     -0.18768  207747.00000
    -0.00732     -0.14486  207846.00000
    -0.00732     -0.13029  207946.00000
    -0.00732     -0.11717  208047.00000
    -0.00732     -0.10479  208146.00000
     4.99268     -3.44478  208850.00000
     4.99268     -3.58626  208950.00000
     4.99268     -3.53415  209050.00000
     4.99268     -3.43946  209151.00000
     4.99268     -3.32499  209250.00000
     4.99268     -3.28769  209350.00000
     4.99268     -3.25878  209451.00000
     4.99268     -3.23309  209550.00000
     4.99268     -3.21199  209650.00000
     4.99268     -3.19329  209751.00000
    -4.99268      4.81162  211274.00000
    -4.99268      4.88656  211376.00000
    -4.99268      4.79120  211475.00000
    -4.99268      4.69008  211575.00000
    -4.99268      4.62481  211676.00000
    -4.99268      4.57599  211775.00000
    -4.99268      4.53712  211875.00000
    -4.99268      4.47658  211976.00000
    -4.99268      4.45272  212075.00000
    -4.99268      4.43100  212176.00000
    -0.00732     -0.26005  213142.00000
    -0.00732     -0.35317  213244.00000
    -0.00732     -0.31824  213343.00000
    -0.00732     -0.25570  213442.00000
    -0.00732     -0.21091  213544.00000
    -0.00732     -0.15345  213643.00000
    -0.00732     -0.13356  213743.00000
    -0.00732     -0.11865  213844.00000
    -0.00732     -0.10539  213943.00000
    -0.00732     -0.09255  214043.00000
     4.49219     -3.10968  214722.00000
     4.49219     -3.23087  214823.00000
     4.49219     -3.17695  214922.00000
     4.49219     -3.08669  215022.00000
     4.49219     -3.02305  215123.00000
     4.49219     -2.94470  215222.00000
     4.49219     -2.91663  215322.00000
     4.49219     -2.89399  215423.00000
     4.49219     -2.87303  215522.00000
     4.49219     -2.85377  215622.00000
    -4.49219      4.28320  217105.00000
    -4.49219      4.47339  217205.00000
    -4.49219      4.43687  217306.00000
    -4.49219      4.33294  217405.00000
    -4.49219      4.20397  217505.00000
    -4.49219      4.16296  217606.00000
    -4.49219      4.13081  217705.00000
    -4.49219      4.10333  217805.00000
    -4.49219      4.07843  217906.00000
    -4.49219      4.05684  218005.00000
    -0.00732     -0.19451  218924.00000
    -0.00732     -0.32659  219024.00000
    -0.00732     -0.29938  219124.00000
    -0.00732     -0.23509  219225.00000
    -0.00732     -0.19124  219324.00000
    -0.00732     -0.16039  219424.00000
    -0.00732     -0.11641  219524.00000
    -0.00732     -0.10077  219624.00000
    -0.00732     -0.08612  219724.00000
    -0.00732     -0.07491  219825.00000
     3.99414     -2.58361  220461.00000
     3.99414     -2.85441  220561.00000
     3.99414     -2.79020  220661.00000
     3.99414     -2.71537  220762.00000
     3.99414     -2.66674  220861.00000
     3.99414     -2.63016  220961.00000
     3.99414     -2.60212  221062.00000
     3.99414     -2.57732  221161.00000
     3.99414     -2.55487  221261.00000
     3.99414     -2.52253  221362.00000
    -3.99414      3.95394  222777.00000
    -3.99414      4.09304  222878.00000
    -3.99414      4.02453  222979.00000
    -3.99414      3.92768  223078.00000
    -3.99414      3.86376  223178.00000
    -3.99414      3.81695  223279.00000
    -3.99414      3.75068  223378.00000
    -3.99414      3.72571  223478.00000
    -3.99414      3.70362  223579.00000
    -3.99414      3.68395  223678.00000
    -0.00732     -0.04028  224578.00000
    -0.00732     -0.26942  224680.00000
    -0.00732     -0.23355  224779.00000
    -0.00732     -0.18230  224879.00000
    -0.00732     -0.14796  224980.00000
    -0.00732     -0.12365  225079.00000
    -0.00732     -0.10331  225179.00000
    -0.00732     -0.08648  225280.00000
    -0.00732     -0.07272  225379.00000
    -0.00732     -0.05168  225479.00000
     3.49365     -2.19465  226091.00000
     3.49365     -2.54406  226192.00000
     3.49365     -2.46872  226292.00000
     3.49365     -2.39426  226393.00000
     3.49365     -2.34645  226492.00000
     3.49365     -2.31100  226592.00000
     3.49365     -2.28209  226693.00000
     3.49365     -2.25873  226792.00000
     3.49365     -2.22182  226892.00000
     3.49365     -2.20688  226993.00000
    -3.49365      3.31087  228365.00000
    -3.49365      3.70532  228466.00000
    -3.49365      3.61771  228567.00000
    -3.49365      3.53734  228666.00000
    -3.49365      3.48501  228766.00000
    -3.49365      3.44459  228867.00000
    -3.49365      3.41217  228966.00000
    -3.49365      3.38629  229066.00000
    -3.49365      3.34566  229167.00000
    -3.49365      3.32829  229266.00000
    -0.00732     -0.16752  230142.00000
    -0.00732     -0.26359  230242.00000
    -0.00732     -0.22550  230343.00000
    -0.00732     -0.17060  230444.00000
    -0.00732     -0.13316  230543.00000
    -0.00732     -0.10582  230643.00000
    -0.00732     -0.06838  230744.00000
    -0.00732     -0.05417  230843.00000
    -0.00732     -0.04236  230942.00000
    -0.00732     -0.03231  231044.00000
     2.99316     -1.82878  231618.00000
     2.99316     -2.21869  231719.00000
     2.99316     -2.14686  231818.00000
     2.99316     -2.07470  231918.00000
     2.99316     -2.02839  232019.00000
     2.99316     -1.99573  232118.00000
     2.99316     -1.96939  232218.00000
     2.99316     -1.94573  232319.00000
     2.99316     -1.91280  232418.00000
     2.99316     -1.89845  232518.00000
    -2.99316      2.82667  233812.00000
    -2.99316      3.33345  233913.00000
    -2.99316      3.25886  234013.00000
    -2.99316      3.17865  234114.00000
    -2.99316      3.12805  234213.00000
    -2.99316      3.09010  234313.00000
    -2.99316      3.05998  234414.00000
    -2.99316      3.03444  234513.00000
    -2.99316      2.99595  234613.00000
    -2.99316      2.97844  234714.00000
    -0.00732      0.15323  235552.00000
    -0.00732     -0.16633  235653.00000
    -0.00732     -0.17284  235752.00000
    -0.00732     -0.12503  235852.00000
    -0.00732     -0.09309  235953.00000
    -0.00732     -0.07002  236052.00000
    -0.00732     -0.05203  236151.00000
    -0.00732     -0.03712  236253.00000
    -0.00732     -0.02448  236352.00000
    -0.00732     -0.00419  236452.00000
     2.49512     -1.75700  236985.00000
     2.49512     -1.89775  237086.00000
     2.49512     -1.84939  237187.00000
     2.49512     -1.77472  237286.00000
     2.49512     -1.72647  237386.00000
     2.49512     -1.69178  237487.00000
     2.49512     -1.64613  237586.00000
     2.49512     -1.62878  237686.00000
     2.49512     -1.61309  237787.00000
     2.49512     -1.59928  237886.00000
    -2.49512      2.74184  239094.00000
    -2.49512      2.94459  239196.00000
    -2.49512      2.90942  239295.00000
    -2.49512      2.82672  239395.00000
    -2.49512      2.77396  239496.00000
    -2.49512      2.73647  239595.00000
    -2.49512      2.68468  239696.00000
    -2.49512      2.66331  239795.00000
    -2.49512      2.64437  239895.00000
    -2.49512      2.62892  239996.00000
    -0.00732      0.17973  240791.00000
    -0.00732     -0.12578  240893.00000
    -0.00732     -0.16471  240992.00000
    -0.00732     -0.11346  241092.00000
    -0.00732     -0.04417  241193.00000
    -0.00732     -0.02307  241292.00000
    -0.00732     -0.00748  241392.00000
    -0.00732      0.00462  241493.00000
    -0.00732      0.01524  241592.00000
    -0.00732      0.02542  241692.00000
     1.99463     -1.30309  242194.00000
     1.99463     -1.54757  242295.00000
     1.99463     -1.55260  242396.00000
     1.99463     -1.48131  242495.00000
     1.99463     -1.39537  242595.00000
     1.99463     -1.37006  242696.00000
     1.99463     -1.34969  242795.00000
     1.99463     -1.33278  242896.00000
     1.99463     -1.31819  242995.00000
     1.99463     -1.30476  243095.00000
    -1.99463      2.01886  244242.00000
    -1.99463      2.54241  244343.00000
    -1.99463      2.48204  244444.00000
    -1.99463      2.41825  244543.00000
    -1.99463      2.37765  244643.00000
    -1.99463      2.34707  244744.00000
    -1.99463      2.32259  244843.00000
    -1.99463      2.30298  244944.00000
    -1.99463      2.28493  245043.00000
    -1.99463      2.25648  245143.00000
    -0.00732      0.48933  245909.00000
    -0.00732     -0.10323  246011.00000
    -0.00732     -0.06994  246110.00000
    -0.00732     -0.02677  246210.00000
    -0.00732      0.00095  246311.00000
    -0.00732      0.02126  246410.00000
    -0.00732      0.03647  246510.00000
    -0.00732      0.04755  246610.00000
    -0.00732      0.05924  246710.00000
    -0.00732      0.07391  246810.00000
     1.49414     -0.96429  247270.00000
     1.49414     -1.20721  247370.00000
     1.49414     -1.20440  247471.00000
     1.49414     -1.14229  247570.00000
     1.49414     -1.09942  247670.00000
     1.49414     -1.04841  247771.00000
     1.49414     -1.03093  247870.00000
     1.49414     -1.01580  247970.00000
     1.49414     -1.00351  248071.00000
     1.49414     -0.99276  248170.00000
    -1.49414      1.64737  249233.00000
    -1.49414      2.03812  249333.00000
    -1.49414      2.06138  249434.00000
    -1.49414      2.01043  249533.00000
    -1.49414      1.97731  249633.00000
    -1.49414      1.95181  249734.00000
    -1.49414      1.93098  249833.00000
    -1.49414      1.91325  249933.00000
    -1.49414      1.89823  250034.00000
    -1.49414      1.87649  250133.00000
    -0.00732      0.30441  250851.00000
    -0.00732      0.00891  250951.00000
    -0.00732     -0.01016  251052.00000
    -0.00732      0.03015  251151.00000
    -0.00732      0.05876  251251.00000
    -0.00732      0.07916  251351.00000
    -0.00732      0.10398  251451.00000
    -0.00732      0.11325  251551.00000
    -0.00732      0.12081  251652.00000
    -0.00732      0.12795  251751.00000
     0.99121     -0.14464  252149.00000
     0.99121     -0.83405  252251.00000
     0.99121     -0.81638  252350.00000
     0.99121     -0.76745  252450.00000
     0.99121     -0.73636  252551.00000
     0.99121     -0.71491  252650.00000
     0.99121     -0.69873  252750.00000
     0.99121     -0.68438  252850.00000
     0.99121     -0.66252  252950.00000
     0.99121     -0.65339  253051.00000
    -0.99121      1.40242  253996.00000
    -0.99121      1.64005  254097.00000
    -0.99121      1.63300  254197.00000
    -0.99121      1.58353  254298.00000
    -0.99121      1.55141  254397.00000
    -0.99121      1.52831  254497.00000
    -0.99121      1.51110  254598.00000
    -0.99121      1.48312  254697.00000
    -0.99121      1.47317  254797.00000
    -0.99121      1.46399  254898.00000
    -0.00732      0.97825  255565.00000
    -0.00732      0.09442  255666.00000
    -0.00732      0.09020  255765.00000
    -0.00732      0.12043  255865.00000
    -0.00732      0.13999  255966.00000
    -0.00732      0.15391  256065.00000
    -0.00732      0.16517  256166.00000
    -0.00732      0.17292  256265.00000
    -0.00732      0.18543  256365.00000
    -0.00732      0.19148  256466.00000
     0.49072     -0.10701  256802.00000
     0.49072     -0.36092  256904.00000
     0.49072     -0.38197  257003.00000
     0.49072     -0.34723  257104.00000
     0.49072     -0.32516  257203.00000
     0.49072     -0.31100  257303.00000
     0.49072     -0.29990  257404.00000
     0.49072     -0.28145  257503.00000
     0.49072     -0.27520  257603.00000
     0.49072     -0.26934  257704.00000
    -0.49072      0.61571  258521.00000
    -0.49072      0.92803  258621.00000
    -0.49072      1.09077  258721.00000
    -0.49072      1.04663  258822.00000
    -0.49072      1.02664  258921.00000
    -0.49072      1.01408  259021.00000
    -0.49072      1.00438  259122.00000
    -0.49072      0.99633  259221.00000
    -0.49072      0.98928  259321.00000
    -0.49072      0.98141  259422.00000
    -0.00732      0.84382  260023.00000
    -0.00732      0.47404  260123.00000
    -0.00732      0.20407  260224.00000
    -0.00732      0.22317  260323.00000
    -0.00732      0.23638  260423.00000
    -0.00732      0.24446  260524.00000
    -0.00732      0.25011  260623.00000
    -0.00732      0.25481  260723.00000
    -0.00732      0.25973  260824.00000
    -0.00732      0.26294  260923.00000