# Acquired on 27/02/2024 09:14:41 
# SPIDER: Tracking_07714532B-1
# STATIC MEASUREMENT

# pos [mm]		 force [N]		 time [ms]
0.23926			-0.07290			231.00000
0.23926			-0.38339			332.00000
0.23926			-0.64600			433.00000
0.23926			-0.67392			532.00000
0.23926			-0.66065			632.00000
0.23926			-0.65779			733.00000
0.23926			-0.65696			832.00000
0.23926			-0.65457			932.00000
0.23926			-0.65248			1033.00000
0.23926			-0.65000			1132.00000
-0.23926			0.02320			1926.00000
-0.23926			0.35008			2026.00000
-0.23926			0.70591			2126.00000
-0.23926			0.69000			2227.00000
-0.23926			0.68256			2326.00000
-0.23926			0.67806			2426.00000
-0.23926			0.67547			2527.00000
-0.23926			0.67165			2626.00000
-0.23926			0.66718			2726.00000
-0.23926			0.66444			2827.00000
-0.00732			0.60464			3409.00000
-0.00732			0.34414			3510.00000
-0.00732			0.07394			3609.00000
-0.00732			0.02282			3709.00000
-0.00732			0.02898			3810.00000
-0.00732			0.03252			3909.00000
-0.00732			0.03194			4009.00000
-0.00732			0.03242			4110.00000
-0.00732			0.03380			4209.00000
-0.00732			0.03672			4309.00000
0.49072			-0.63026			4708.00000
0.49072			-1.24554			4809.00000
0.49072			-1.45882			4910.00000
0.49072			-1.46741			5009.00000
0.49072			-1.45497			5109.00000
0.49072			-1.44160			5210.00000
0.49072			-1.43582			5309.00000
0.49072			-1.43253			5409.00000
0.49072			-1.42860			5510.00000
0.49072			-1.42574			5609.00000
-0.49072			0.81103			6531.00000
-0.49072			1.29540			6630.00000
-0.49072			1.40776			6730.00000
-0.49072			1.39280			6831.00000
-0.49072			1.37898			6930.00000
-0.49072			1.36945			7030.00000
-0.49072			1.36244			7131.00000
-0.49072			1.35284			7230.00000
-0.49072			1.34922			7330.00000
-0.49072			1.34530			7431.00000
-0.00732			0.99687			8086.00000
-0.00732			0.36742			8187.00000
-0.00732			-0.03693			8288.00000
-0.00732			-0.02934			8387.00000
-0.00732			-0.02114			8487.00000
-0.00732			-0.01737			8588.00000
-0.00732			-0.01541			8687.00000
-0.00732			-0.01300			8787.00000
-0.00732			-0.00951			8888.00000
-0.00732			-0.00649			8987.00000
0.74219			-1.59708			9440.00000
0.74219			-2.11921			9540.00000
0.74219			-2.23614			9641.00000
0.74219			-2.21877			9742.00000
0.74219			-2.20281			9841.00000
0.74219			-2.19341			9941.00000
0.74219			-2.17939			10042.00000
0.74219			-2.17225			10141.00000
0.74219			-2.16717			10241.00000
0.74219			-2.16388			10342.00000
-0.74219			1.52876			11372.00000
-0.74219			1.99519			11473.00000
-0.74219			2.09027			11574.00000
-0.74219			2.06798			11673.00000
-0.74219			2.05169			11773.00000
-0.74219			2.04088			11874.00000
-0.74219			2.03108			11973.00000
-0.74219			2.01580			12073.00000
-0.74219			2.01122			12174.00000
-0.74219			2.00537			12273.00000
-0.00732			0.73580			12978.00000
-0.00732			0.11614			13079.00000
-0.00732			-0.06805			13179.00000
-0.00732			-0.07237			13280.00000
-0.00732			-0.05880			13379.00000
-0.00732			-0.04877			13479.00000
-0.00732			-0.04387			13580.00000
-0.00732			-0.03959			13679.00000
-0.00732			-0.03776			13779.00000
-0.00732			-0.03565			13880.00000
0.99121			-2.34940			14381.00000
0.99121			-2.87912			14482.00000
0.99121			-3.00354			14582.00000
0.99121			-2.99047			14683.00000
0.99121			-2.97101			14782.00000
0.99121			-2.95774			14882.00000
0.99121			-2.93879			14983.00000
0.99121			-2.93037			15082.00000
0.99121			-2.92441			15182.00000
0.99121			-2.91836			15283.00000
-0.99121			2.16234			16411.00000
-0.99121			2.64422			16511.00000
-0.99121			2.75288			16612.00000
-0.99121			2.73041			16711.00000
-0.99121			2.70993			16811.00000
-0.99121			2.68494			16912.00000
-0.99121			2.67610			17011.00000
-0.99121			2.66800			17112.00000
-0.99121			2.65941			17211.00000
-0.99121			2.65239			17311.00000
-0.00732			0.45220			18065.00000
-0.00732			-0.00435			18165.00000
-0.00732			-0.10374			18267.00000
-0.00732			-0.09622			18366.00000
-0.00732			-0.08491			18466.00000
-0.00732			-0.07471			18567.00000
-0.00732			-0.06774			18666.00000
-0.00732			-0.06055			18766.00000
-0.00732			-0.05588			18867.00000
-0.00732			-0.05208			18966.00000
1.24023			-2.92175			19505.00000
1.24023			-3.57388			19605.00000
1.24023			-3.76478			19705.00000
1.24023			-3.75485			19806.00000
1.24023			-3.71375			19905.00000
1.24023			-3.70056			20005.00000
1.24023			-3.68862			20106.00000
1.24023			-3.67952			20205.00000
1.24023			-3.67203			20305.00000
1.24023			-3.66286			20406.00000
-1.24512			2.80614			21608.00000
-1.24512			3.30153			21708.00000
-1.24512			3.42831			21809.00000
-1.24512			3.40908			21908.00000
-1.24512			3.38453			22008.00000
-1.24512			3.35381			22109.00000
-1.24512			3.34290			22208.00000
-1.24512			3.33255			22308.00000
-1.24512			3.32302			22409.00000
-1.24512			3.31616			22508.00000
-0.00732			0.79371			23299.00000
-0.00732			0.11964			23400.00000
-0.00732			-0.11316			23500.00000
-0.00732			-0.11075			23601.00000
-0.00732			-0.09977			23700.00000
-0.00732			-0.09195			23800.00000
-0.00732			-0.08451			23901.00000
-0.00732			-0.07976			24000.00000
-0.00732			-0.07536			24100.00000
-0.00732			-0.07154			24201.00000
1.49170			-3.85164			24769.00000
1.49170			-4.41394			24870.00000
1.49170			-4.55103			24971.00000
1.49170			-4.53200			25070.00000
1.49170			-4.50706			25170.00000
1.49170			-4.47351			25271.00000
1.49170			-4.46059			25370.00000
1.49170			-4.44978			25470.00000
1.49170			-4.44028			25571.00000
1.49170			-4.43128			25670.00000
-1.49170			3.65427			26946.00000
-1.49170			4.03067			27046.00000
-1.49170			4.08373			27147.00000
-1.49170			4.04987			27246.00000
-1.49170			4.02630			27346.00000
-1.49170			4.00938			27447.00000
-1.49170			3.99490			27546.00000
-1.49170			3.98236			27646.00000
-1.49170			3.96218			27747.00000
-1.49170			3.95506			27846.00000
-0.00732			0.73811			28673.00000
-0.00732			0.09116			28774.00000
-0.00732			-0.13299			28873.00000
-0.00732			-0.13239			28974.00000
-0.00732			-0.11965			29073.00000
-0.00732			-0.10972			29173.00000
-0.00732			-0.10278			29274.00000
-0.00732			-0.09647			29373.00000
-0.00732			-0.08994			29473.00000
-0.00732			-0.08458			29574.00000
1.74072			-4.26620			30173.00000
1.74072			-5.05471			30274.00000
1.74072			-5.32845			30374.00000
1.74072			-5.29937			30475.00000
1.74072			-5.27597			30574.00000
1.74072			-5.25704			30674.00000
1.74072			-5.24166			30775.00000
1.74072			-5.22864			30874.00000
1.74072			-5.21798			30974.00000
1.74072			-5.20848			31075.00000
-1.74316			4.31377			32410.00000
-1.74316			4.69509			32510.00000
-1.74316			4.75655			32611.00000
-1.74316			4.72214			32710.00000
-1.74316			4.69602			32810.00000
-1.74316			4.67712			32911.00000
-1.74316			4.66088			33010.00000
-1.74316			4.63454			33110.00000
-1.74316			4.62413			33211.00000
-1.74316			4.61504			33310.00000
-0.00732			0.29209			34174.00000
-0.00732			-0.09301			34275.00000
-0.00732			-0.17487			34374.00000
-0.00732			-0.15969			34474.00000
-0.00732			-0.14403			34575.00000
-0.00732			-0.13018			34674.00000
-0.00732			-0.12105			34774.00000
-0.00732			-0.10834			34875.00000
-0.00732			-0.10268			34974.00000
-0.00732			-0.09843			35075.00000
1.99219			-5.27919			35716.00000
1.99219			-5.95690			35817.00000
1.99219			-6.16439			35917.00000
1.99219			-6.12350			36018.00000
1.99219			-6.09869			36117.00000
1.99219			-6.07790			36217.00000
1.99219			-6.06260			36318.00000
1.99219			-6.04809			36417.00000
1.99219			-6.03429			36517.00000
1.99219			-6.02253			36618.00000
-1.99219			4.43919			38027.00000
-1.99219			5.40613			38127.00000
-1.99219			5.41765			38227.00000
-1.99219			5.37952			38328.00000
-1.99219			5.35473			38427.00000
-1.99219			5.33556			38527.00000
-1.99219			5.31844			38628.00000
-1.99219			5.30373			38727.00000
-1.99219			5.29097			38827.00000
-1.99219			5.26993			38928.00000
-0.00732			0.32838			39822.00000
-0.00732			-0.09160			39922.00000
-0.00732			-0.19382			40022.00000
-0.00732			-0.18183			40123.00000
-0.00732			-0.16255			40222.00000
-0.00732			-0.14838			40323.00000
-0.00732			-0.13091			40422.00000
-0.00732			-0.12337			40522.00000
-0.00732			-0.11766			40623.00000
-0.00732			-0.11284			40722.00000
2.23877			-5.56716			41376.00000
2.23877			-6.95356			41478.00000
2.23877			-7.00393			41577.00000
2.23877			-6.96414			41677.00000
2.23877			-6.93345			41778.00000
2.23877			-6.90937			41877.00000
2.23877			-6.88916			41977.00000
2.23877			-6.87297			42078.00000
2.23877			-6.84527			42177.00000
2.23877			-6.83391			42277.00000
-2.24365			5.27956			43723.00000
-2.24365			5.89810			43825.00000
-2.24365			6.10162			43924.00000
-2.24365			6.05130			44024.00000
-2.24365			6.02536			44125.00000
-2.24365			6.00440			44224.00000
-2.24365			5.98688			44324.00000
-2.24365			5.97280			44425.00000
-2.24365			5.95951			44524.00000
-2.24365			5.94696			44624.00000
-0.00732			0.31029			45543.00000
-0.00732			-0.11402			45644.00000
-0.00732			-0.21622			45745.00000
-0.00732			-0.20106			45844.00000
-0.00732			-0.18118			45944.00000
-0.00732			-0.16884			46045.00000
-0.00732			-0.14350			46144.00000
-0.00732			-0.13762			46244.00000
-0.00732			-0.13101			46345.00000
-0.00732			-0.12794			46444.00000
2.49268			-7.14481			47141.00000
2.49268			-7.73619			47243.00000
2.49268			-7.88936			47342.00000
2.49268			-7.86241			47442.00000
2.49268			-7.79616			47543.00000
2.49268			-7.77344			47642.00000
2.49268			-7.75308			47742.00000
2.49268			-7.73561			47843.00000
2.49268			-7.72050			47942.00000
2.49268			-7.70716			48042.00000
-2.49512			6.48257			49568.00000
-2.49512			6.76777			49670.00000
-2.49512			6.79291			49769.00000
-2.49512			6.75312			49869.00000
-2.49512			6.72296			49970.00000
-2.49512			6.69790			50069.00000
-2.49512			6.67827			50169.00000
-2.49512			6.66211			50270.00000
-2.49512			6.63298			50369.00000
-2.49512			6.62194			50469.00000
-0.00732			0.86125			51412.00000
-0.00732			-0.18807			51513.00000
-0.00732			-0.23685			51612.00000
-0.00732			-0.21481			51712.00000
-0.00732			-0.19415			51813.00000
-0.00732			-0.17640			51912.00000
-0.00732			-0.16695			52013.00000
-0.00732			-0.15790			52111.00000
-0.00732			-0.14129			52212.00000
-0.00732			-0.13438			52313.00000
2.74170			-8.10356			53027.00000
2.74170			-8.66271			53128.00000
2.74170			-8.78379			53227.00000
2.74170			-8.74048			53327.00000
2.74170			-8.69933			53428.00000
2.74170			-8.66970			53527.00000
2.74170			-8.62413			53627.00000
2.74170			-8.60488			53728.00000
2.74170			-8.58874			53827.00000
2.74170			-8.57436			53927.00000
-2.74414			6.95978			55495.00000
-2.74414			7.40728			55597.00000
-2.74414			7.50772			55696.00000
-2.74414			7.46864			55796.00000
-2.74414			7.43119			55897.00000
-2.74414			7.38212			55996.00000
-2.74414			7.36300			56096.00000
-2.74414			7.34568			56197.00000
-2.74414			7.33130			56296.00000
-2.74414			7.31888			56396.00000
-0.00732			0.48442			57375.00000
-0.00732			-0.05442			57477.00000
-0.00732			-0.23808			57576.00000
-0.00732			-0.21951			57676.00000
-0.00732			-0.20038			57777.00000
-0.00732			-0.18651			57876.00000
-0.00732			-0.17703			57976.00000
-0.00732			-0.16652			58077.00000
-0.00732			-0.15745			58176.00000
-0.00732			-0.15129			58276.00000
2.99072			-9.00701			59009.00000
2.99072			-9.59359			59110.00000
2.99072			-9.72379			59210.00000
2.99072			-9.68458			59311.00000
2.99072			-9.64104			59410.00000
2.99072			-9.60774			59510.00000
2.99072			-9.55689			59611.00000
2.99072			-9.53721			59710.00000
2.99072			-9.51999			59810.00000
2.99072			-9.50453			59911.00000
-2.98828			7.18906			61526.00000
-2.98828			7.92577			61627.00000
-2.98828			8.21437			61727.00000
-2.98828			8.16744			61828.00000
-2.98828			8.13489			61927.00000
-2.98828			8.10988			62027.00000
-2.98828			8.08779			62128.00000
-2.98828			8.06710			62227.00000
-2.98828			8.05067			62327.00000
-2.98828			8.02397			62428.00000
-0.00732			0.28415			63419.00000
-0.00732			-0.15016			63519.00000
-0.00732			-0.26684			63620.00000
-0.00732			-0.25379			63719.00000
-0.00732			-0.22768			63819.00000
-0.00732			-0.19664			63920.00000
-0.00732			-0.18882			64019.00000
-0.00732			-0.17557			64119.00000
-0.00732			-0.16253			64220.00000
-0.00732			-0.15896			64319.00000
3.24219			-10.03001			65084.00000
3.24219			-10.58092			65184.00000
3.24219			-10.68862			65285.00000
3.24219			-10.63576			65384.00000
3.24219			-10.59014			65484.00000
3.24219			-10.55588			65585.00000
3.24219			-10.50214			65684.00000
3.24219			-10.48045			65784.00000
3.24219			-10.46130			65885.00000
3.24219			-10.44504			65984.00000
-3.24463			8.36840			67650.00000
-3.24463			8.86326			67751.00000
-3.24463			8.98586			67852.00000
-3.24463			8.94439			67951.00000
-3.24463			8.90131			68051.00000
-3.24463			8.84604			68152.00000
-3.24463			8.82462			68251.00000
-3.24463			8.80537			68351.00000
-3.24463			8.78755			68452.00000
-3.24463			8.77204			68551.00000
-0.00732			0.16910			69573.00000
-0.00732			-0.19870			69674.00000
-0.00732			-0.28685			69775.00000
-0.00732			-0.26721			69874.00000
-0.00732			-0.23879			69974.00000
-0.00732			-0.22122			70075.00000
-0.00732			-0.19804			70174.00000
-0.00732			-0.18357			70275.00000
-0.00732			-0.17766			70374.00000
-0.00732			-0.17190			70474.00000
3.49121			-10.84521			71264.00000
3.49121			-11.51094			71364.00000
3.49121			-11.69721			71464.00000
3.49121			-11.66597			71565.00000
3.49121			-11.57534			71664.00000
3.49121			-11.54276			71764.00000
3.49121			-11.51486			71865.00000
3.49121			-11.49138			71964.00000
3.49121			-11.47165			72064.00000
3.49121			-11.45310			72165.00000
-3.49121			9.30078			73879.00000
-3.49121			9.68434			73979.00000
-3.49121			9.74685			74080.00000
-3.49121			9.69555			74179.00000
-3.49121			9.65493			74279.00000
-3.49121			9.62618			74380.00000
-3.49121			9.57747			74479.00000
-3.49121			9.55826			74579.00000
-3.49121			9.54160			74680.00000
-3.49121			9.52579			74779.00000
-0.00732			0.14947			75832.00000
-0.00732			-0.20941			75932.00000
-0.00732			-0.29841			76032.00000
-0.00732			-0.27948			76133.00000
-0.00732			-0.25211			76232.00000
-0.00732			-0.21883			76333.00000
-0.00732			-0.20732			76432.00000
-0.00732			-0.19621			76532.00000
-0.00732			-0.18663			76633.00000
-0.00732			-0.17972			76732.00000
3.74268			-11.46398			77551.00000
3.74268			-12.72742			77652.00000
3.74268			-12.74057			77753.00000
3.74268			-12.67896			77852.00000
3.74268			-12.63314			77952.00000
3.74268			-12.59707			78053.00000
3.74268			-12.56565			78152.00000
3.74268			-12.53657			78253.00000
3.74268			-12.49231			78352.00000
3.74268			-12.47183			78452.00000
-3.74512			10.11470			80216.00000
-3.74512			10.49575			80315.00000
-3.74512			10.55939			80415.00000
-3.74512			10.51035			80516.00000
-3.74512			10.46772			80615.00000
-3.74512			10.43588			80715.00000
-3.74512			10.38689			80816.00000
-3.74512			10.36655			80915.00000
-3.74512			10.34808			81015.00000
-3.74512			10.33117			81116.00000
-0.00732			0.28749			82191.00000
-0.00732			-0.16394			82292.00000
-0.00732			-0.31000			82393.00000
-0.00732			-0.27684			82492.00000
-0.00732			-0.25316			82592.00000
-0.00732			-0.23635			82693.00000
-0.00732			-0.22220			82792.00000
-0.00732			-0.21051			82892.00000
-0.00732			-0.20103			82993.00000
-0.00732			-0.19453			83092.00000
3.98926			-13.09381			83917.00000
3.98926			-13.71990			84018.00000
3.98926			-13.85910			84117.00000
3.98926			-13.80489			84217.00000
3.98926			-13.74851			84318.00000
3.98926			-13.70439			84417.00000
3.98926			-13.63661			84517.00000
3.98926			-13.60938			84618.00000
3.98926			-13.58694			84717.00000
3.98926			-13.56568			84817.00000
-3.99170			10.20954			86618.00000
-3.99170			11.35283			86718.00000
-3.99170			11.37118			86818.00000
-3.99170			11.31261			86919.00000
-3.99170			11.27270			87018.00000
-3.99170			11.23954			87118.00000
-3.99170			11.21230			87219.00000
-3.99170			11.18942			87318.00000
-3.99170			11.14866			87418.00000
-3.99170			11.13162			87519.00000
-0.00732			0.23599			88607.00000
-0.00732			-0.19943			88709.00000
-0.00732			-0.32885			88808.00000
-0.00732			-0.31535			88908.00000
-0.00732			-0.26226			89009.00000
-0.00732			-0.24444			89108.00000
-0.00732			-0.22909			89208.00000
-0.00732			-0.21936			89309.00000
-0.00732			-0.21036			89408.00000
-0.00732			-0.20327			89508.00000
4.24072			-14.07313			90363.00000
4.24072			-14.79880			90465.00000
4.24072			-14.99530			90564.00000
4.24072			-14.94973			90664.00000
4.24072			-14.83638			90765.00000
4.24072			-14.79724			90864.00000
4.24072			-14.76369			90964.00000
4.24072			-14.73511			91065.00000
4.24072			-14.70849			91164.00000
4.24072			-14.68398			91264.00000
-4.24072			11.40742			93108.00000
-4.24072			12.03469			93208.00000
-4.24072			12.23572			93308.00000
-4.24072			12.15366			93409.00000
-4.24072			12.11419			93508.00000
-4.24072			12.08139			93608.00000
-4.24072			12.05462			93709.00000
-4.24072			12.03062			93808.00000
-4.24072			12.00925			93908.00000
-4.24072			11.99048			94009.00000
-0.00732			0.18821			95116.00000
-0.00732			-0.22680			95216.00000
-0.00732			-0.34601			95316.00000
-0.00732			-0.33048			95417.00000
-0.00732			-0.27714			95516.00000
-0.00732			-0.25849			95616.00000
-0.00732			-0.24283			95717.00000
-0.00732			-0.23014			95816.00000
-0.00732			-0.22132			95917.00000
-0.00732			-0.21006			96016.00000
4.49219			-15.07772			96878.00000
4.49219			-15.95418			96979.00000
4.49219			-16.20586			97080.00000
4.49219			-16.16350			97179.00000
4.49219			-16.03871			97279.00000
4.49219			-15.99493			97380.00000
4.49219			-15.95793			97479.00000
4.49219			-15.92535			97579.00000
4.49219			-15.89594			97680.00000
4.49219			-15.86947			97779.00000
-4.49219			11.89929			99634.00000
-4.49219			13.12414			99735.00000
-4.49219			13.13091			99835.00000
-4.49219			13.06802			99936.00000
-4.49219			13.02360			100035.00000
-4.49219			12.98595			100135.00000
-4.49219			12.95632			100236.00000
-4.49219			12.93126			100335.00000
-4.49219			12.90740			100435.00000
-4.49219			12.86643			100536.00000
-0.00732			0.44393			101660.00000
-0.00732			-0.33940			101761.00000
-0.00732			-0.35607			101862.00000
-0.00732			-0.32249			101961.00000
-0.00732			-0.29469			102062.00000
-0.00732			-0.27601			102161.00000
-0.00732			-0.25915			102261.00000
-0.00732			-0.24517			102362.00000
-0.00732			-0.23404			102461.00000
-0.00732			-0.21539			102561.00000
4.73877			-16.70705			103459.00000
4.73877			-17.31446			103561.00000
4.73877			-17.42216			103660.00000
4.73877			-17.34679			103760.00000
4.73877			-17.27774			103861.00000
4.73877			-17.17951			103960.00000
4.73877			-17.14166			104060.00000
4.73877			-17.10803			104161.00000
4.73877			-17.07744			104260.00000
4.73877			-17.05087			104360.00000
-4.74121			13.42151			106289.00000
-4.74121			13.95058			106390.00000
-4.74121			14.07475			106490.00000
-4.74121			14.02013			106591.00000
-4.74121			13.92042			106690.00000
-4.74121			13.88677			106790.00000
-4.74121			13.85778			106891.00000
-4.74121			13.83260			106990.00000
-4.74121			13.80988			107090.00000
-4.74121			13.78864			107191.00000
-0.00732			0.27902			108340.00000
-0.00732			-0.20448			108441.00000
-0.00732			-0.36403			108541.00000
-0.00732			-0.32983			108642.00000
-0.00732			-0.30432			108741.00000
-0.00732			-0.28310			108841.00000
-0.00732			-0.26679			108942.00000
-0.00732			-0.25392			109041.00000
-0.00732			-0.24148			109141.00000
-0.00732			-0.21974			109242.00000
4.99268			-17.90129			110145.00000
4.99268			-18.58534			110246.00000
4.99268			-18.72144			110347.00000
4.99268			-18.64913			110446.00000
4.99268			-18.57468			110546.00000
4.99268			-18.51627			110647.00000
4.99268			-18.42586			110746.00000
4.99268			-18.38949			110846.00000
4.99268			-18.35686			110947.00000
4.99268			-18.32637			111046.00000
-4.99268			14.12532			112993.00000
-4.99268			14.83589			113093.00000
-4.99268			15.04866			113193.00000
-4.99268			14.94374			113294.00000
-4.99268			14.89873			113393.00000
-4.99268			14.86110			113493.00000
-4.99268			14.82810			113594.00000
-4.99268			14.80060			113693.00000
-4.99268			14.77569			113793.00000
-4.99268			14.75357			113894.00000
-0.00732			-0.10572			115050.00000
-0.00732			-0.35936			115150.00000
-0.00732			-0.38766			115251.00000
-0.00732			-0.35147			115350.00000
-0.00732			-0.32324			115450.00000
-0.00732			-0.30223			115551.00000
-0.00732			-0.28270			115650.00000
-0.00732			-0.26716			115750.00000
-0.00732			-0.24294			115851.00000
-0.00732			-0.23512			115950.00000
5.23926			-18.60542			116879.00000
5.23926			-19.66114			116980.00000
5.23926			-19.99959			117081.00000
5.23926			-19.90611			117180.00000
5.23926			-19.83857			117280.00000
5.23926			-19.78224			117381.00000
5.23926			-19.73368			117480.00000
5.23926			-19.69253			117580.00000
5.23926			-19.65579			117681.00000
5.23926			-19.59222			117780.00000
-5.24170			15.14427			119770.00000
-5.24170			15.84101			119870.00000
-5.24170			16.05240			119970.00000
-5.24170			15.93916			120071.00000
-5.24170			15.89156			120170.00000
-5.24170			15.85245			120270.00000
-5.24170			15.81942			120371.00000
-5.24170			15.79039			120470.00000
-5.24170			15.76292			120570.00000
-5.24170			15.73901			120671.00000
-0.00732			-0.02471			121845.00000
-0.00732			-0.34026			121946.00000
-0.00732			-0.40234			122045.00000
-0.00732			-0.36992			122145.00000
-0.00732			-0.33759			122246.00000
-0.00732			-0.31560			122345.00000
-0.00732			-0.27581			122444.00000
-0.00732			-0.26219			122546.00000
-0.00732			-0.25138			122645.00000
-0.00732			-0.24188			122745.00000
5.49072			-20.68469			123693.00000
5.49072			-21.31211			123794.00000
5.49072			-21.42215			123894.00000
5.49072			-21.33659			123995.00000
5.49072			-21.25425			124094.00000
5.49072			-21.18764			124194.00000
5.49072			-21.08552			124295.00000
5.49072			-21.04339			124394.00000
5.49072			-21.00501			124494.00000
5.49072			-20.97141			124595.00000
-5.49072			16.40298			126619.00000
-5.49072			16.97437			126720.00000
-5.49072			17.10671			126821.00000
-5.49072			17.04101			126920.00000
-5.49072			16.93089			127021.00000
-5.49072			16.89065			127120.00000
-5.49072			16.85531			127220.00000
-5.49072			16.82583			127321.00000
-5.49072			16.79956			127420.00000
-5.49072			16.77558			127520.00000
-0.00732			-0.00656			128725.00000
-0.00732			-0.33287			128826.00000
-0.00732			-0.41360			128925.00000
-0.00732			-0.38744			129025.00000
-0.00732			-0.35476			129126.00000
-0.00732			-0.30552			129225.00000
-0.00732			-0.28951			129326.00000
-0.00732			-0.27677			129425.00000
-0.00732			-0.26450			129525.00000
-0.00732			-0.25306			129626.00000
5.73975			-21.63210			130602.00000
5.73975			-22.57112			130704.00000
5.73975			-22.81338			130803.00000
5.73975			-22.70989			130904.00000
5.73975			-22.63394			131003.00000
5.73975			-22.57072			131103.00000
5.73975			-22.51547			131204.00000
5.73975			-22.46817			131303.00000
5.73975			-22.42526			131403.00000
5.73975			-22.38560			131504.00000
-5.74463			17.41147			133583.00000
-5.74463			18.04085			133684.00000
-5.74463			18.21770			133783.00000
-5.74463			18.15854			133883.00000
-5.74463			18.03558			133984.00000
-5.74463			17.99277			134083.00000
-5.74463			17.95718			134183.00000
-5.74463			17.92553			134284.00000
-5.74463			17.89663			134383.00000
-5.74463			17.87054			134483.00000
-0.00732			0.13887			135706.00000
-0.00732			-0.27875			135807.00000
-0.00732			-0.41765			135908.00000
-0.00732			-0.37359			136007.00000
-0.00732			-0.34478			136107.00000
-0.00732			-0.32058			136208.00000
-0.00732			-0.30215			136307.00000
-0.00732			-0.28690			136406.00000
-0.00732			-0.27275			136507.00000
-0.00732			-0.26239			136607.00000
5.99121			-23.75471			137585.00000
5.99121			-24.32904			137685.00000
5.99121			-24.37275			137786.00000
5.99121			-24.26201			137885.00000
5.99121			-24.16979			137985.00000
5.99121			-24.09549			138086.00000
5.99121			-24.03293			138185.00000
5.99121			-23.92980			138286.00000
5.99121			-23.88614			138385.00000
5.99121			-23.84771			138485.00000
-5.99121			18.82977			140583.00000
-5.99121			19.31231			140685.00000
-5.99121			19.36064			140784.00000
-5.99121			19.27345			140884.00000
-5.99121			19.20883			140985.00000
-5.99121			19.15858			141084.00000
-5.99121			19.11542			141184.00000
-5.99121			19.04656			141285.00000
-5.99121			19.01795			141384.00000
-5.99121			18.99033			141485.00000
-0.00732			-0.05312			142713.00000
-0.00732			-0.37210			142815.00000
-0.00732			-0.44070			142914.00000
-0.00732			-0.40792			143014.00000
-0.00732			-0.37155			143115.00000
-0.00732			-0.32211			143214.00000
-0.00732			-0.30482			143314.00000
-0.00732			-0.29041			143415.00000
-0.00732			-0.27574			143514.00000
-0.00732			-0.26304			143614.00000
6.24268			-24.19922			144610.00000
6.24268			-25.94975			144711.00000
6.24268			-25.91471			144811.00000
6.24268			-25.78594			144912.00000
6.24268			-25.69025			145011.00000
6.24268			-25.61415			145112.00000
6.24268			-25.54824			145211.00000
6.24268			-25.49126			145311.00000
6.24268			-25.44091			145412.00000
6.24268			-25.35354			145511.00000
-6.24512			19.95303			147635.00000
-6.24512			20.51535			147735.00000
-6.24512			20.60184			147835.00000
-6.24512			20.51075			147936.00000
-6.24512			20.43969			148035.00000
-6.24512			20.38500			148135.00000
-6.24512			20.29913			148236.00000
-6.24512			20.26367			148335.00000
-6.24512			20.23175			148435.00000
-6.24512			20.20342			148536.00000
-0.00732			0.09455			149783.00000
-0.00732			-0.32118			149884.00000
-0.00732			-0.44748			149985.00000
-0.00732			-0.38646			150084.00000
-0.00732			-0.35697			150184.00000
-0.00732			-0.33337			150285.00000
-0.00732			-0.31404			150384.00000
-0.00732			-0.29723			150484.00000
-0.00732			-0.28149			150585.00000
-0.00732			-0.26900			150684.00000
6.49170			-26.50345			151710.00000
6.49170			-27.37769			151812.00000
6.49170			-27.58541			151911.00000
6.49170			-27.48871			152011.00000
6.49170			-27.27869			152112.00000
6.49170			-27.20160			152211.00000
6.49170			-27.13507			152311.00000
6.49170			-27.07637			152412.00000
6.49170			-27.02372			152511.00000
6.49170			-26.97734			152611.00000
-6.49170			20.94101			154795.00000
-6.49170			21.66844			154897.00000
-6.49170			21.86459			154996.00000
-6.49170			21.70199			155097.00000
-6.49170			21.64177			155196.00000
-6.49170			21.59137			155296.00000
-6.49170			21.54875			155397.00000
-6.49170			21.51114			155496.00000
-6.49170			21.47578			155596.00000
-6.49170			21.44511			155697.00000
-0.00732			-0.14958			156968.00000
-0.00732			-0.41172			157069.00000
-0.00732			-0.45786			157168.00000
-0.00732			-0.42159			157268.00000
-0.00732			-0.38598			157369.00000
-0.00732			-0.35740			157468.00000
-0.00732			-0.31683			157568.00000
-0.00732			-0.30160			157669.00000
-0.00732			-0.28609			157768.00000
-0.00732			-0.27295			157869.00000
6.74072			-28.40662			158901.00000
6.74072			-29.16914			159001.00000
6.74072			-29.27496			159101.00000
6.74072			-29.12518			159202.00000
6.74072			-29.00285			159301.00000
6.74072			-28.90615			159401.00000
6.74072			-28.75547			159502.00000
6.74072			-28.69228			159601.00000
6.74072			-28.63821			159701.00000
6.74072			-28.58882			159802.00000
-6.74072			22.22480			162009.00000
-6.74072			22.99233			162109.00000
-6.74072			23.20298			162210.00000
-6.74072			23.11835			162311.00000
-6.74072			22.96289			162410.00000
-6.74072			22.90860			162510.00000
-6.74072			22.86318			162611.00000
-6.74072			22.82377			162710.00000
-6.74072			22.78740			162810.00000
-6.74072			22.75407			162911.00000
-0.00732			-0.09238			164194.00000
-0.00732			-0.39932			164295.00000
-0.00732			-0.46973			164395.00000
-0.00732			-0.43735			164496.00000
-0.00732			-0.40088			164595.00000
-0.00732			-0.34865			164696.00000
-0.00732			-0.32774			164795.00000
-0.00732			-0.30997			164895.00000
-0.00732			-0.29466			164996.00000
-0.00732			-0.28116			165095.00000
6.99219			-29.73531			166145.00000
6.99219			-30.78130			166246.00000
6.99219			-31.06530			166346.00000
6.99219			-30.95863			166447.00000
6.99219			-30.70881			166546.00000
6.99219			-30.61714			166646.00000
6.99219			-30.53822			166747.00000
6.99219			-30.46912			166846.00000
6.99219			-30.40767			166946.00000
6.99219			-30.35272			167047.00000
-6.99219			23.81110			169291.00000
-6.99219			24.48278			169392.00000
-6.99219			24.61308			169491.00000
-6.99219			24.50206			169591.00000
-6.99219			24.41218			169692.00000
-6.99219			24.29158			169791.00000
-6.99219			24.24407			169891.00000
-6.99219			24.20202			169992.00000
-6.99219			24.16445			170092.00000
-6.99219			24.13117			170191.00000
-0.00732			-0.13790			171494.00000
-0.00732			-0.42004			171595.00000
-0.00732			-0.48001			171696.00000
-0.00732			-0.44537			171795.00000
-0.00732			-0.40516			171895.00000
-0.00732			-0.35094			171996.00000
-0.00732			-0.33128			172095.00000
-0.00732			-0.31253			172195.00000
-0.00732			-0.29710			172296.00000
-0.00732			-0.28423			172395.00000
7.24121			-31.28528			173464.00000
7.24121			-32.50626			173564.00000
7.24121			-32.77191			173665.00000
7.24121			-32.60175			173764.00000
7.24121			-32.47975			173864.00000
7.24121			-32.37936			173965.00000
7.24121			-32.29488			174064.00000
7.24121			-32.22013			174164.00000
7.24121			-32.15264			174265.00000
7.24121			-32.03923			174364.00000
-7.24121			24.81597			176627.00000
-7.24121			25.76783			176729.00000
-7.24121			25.99900			176828.00000
-7.24121			25.88011			176928.00000
-7.24121			25.80539			177029.00000
-7.24121			25.74365			177128.00000
-7.24121			25.69127			177228.00000
-7.24121			25.64394			177329.00000
-7.24121			25.60064			177428.00000
-7.24121			25.56351			177528.00000
-0.00732			-0.28682			178862.00000
-0.00732			-0.46204			178962.00000
-0.00732			-0.47759			179062.00000
-0.00732			-0.43921			179163.00000
-0.00732			-0.40169			179262.00000
-0.00732			-0.37075			179362.00000
-0.00732			-0.34938			179463.00000
-0.00732			-0.31409			179562.00000
-0.00732			-0.30022			179662.00000
-0.00732			-0.28773			179763.00000
7.49268			-33.20984			180844.00000
7.49268			-34.44002			180944.00000
7.49268			-34.81301			181045.00000
7.49268			-34.54087			181144.00000
7.49268			-34.41014			181244.00000
7.49268			-34.30213			181345.00000
7.49268			-34.21064			181444.00000
7.49268			-34.12898			181544.00000
7.49268			-34.05664			181645.00000
7.49268			-33.99308			181744.00000
-7.49268			27.02929			184044.00000
-7.49268			27.57441			184144.00000
-7.49268			27.60485			184245.00000
-7.49268			27.47249			184344.00000
-7.49268			27.38107			184444.00000
-7.49268			27.31120			184545.00000
-7.49268			27.25211			184644.00000
-7.49268			27.15368			184744.00000
-7.49268			27.11188			184845.00000
-7.49268			27.07506			184944.00000
-0.00732			-0.13538			186271.00000
-0.00732			-0.43067			186372.00000
-0.00732			-0.49876			186471.00000
-0.00732			-0.46309			186571.00000
-0.00732			-0.42157			186672.00000
-0.00732			-0.36542			186771.00000
-0.00732			-0.34358			186871.00000
-0.00732			-0.32432			186972.00000
-0.00732			-0.30786			187071.00000
-0.00732			-0.29469			187171.00000
7.74170			-36.03283			188265.00000
7.74170			-36.72621			188366.00000
7.74170			-36.72437			188467.00000
7.74170			-36.50643			188566.00000
7.74170			-36.34994			188666.00000
7.74170			-36.22768			188767.00000
7.74170			-36.12427			188866.00000
7.74170			-35.95323			188966.00000
7.74170			-35.88144			189067.00000
7.74170			-35.81521			189166.00000
-7.73926			27.76951			191491.00000
-7.73926			28.87528			191592.00000
-7.73926			29.16119			191692.00000
-7.73926			29.02405			191793.00000
-7.73926			28.93706			191892.00000
-7.73926			28.86537			191992.00000
-7.73926			28.80425			192093.00000
-7.73926			28.75126			192192.00000
-7.73926			28.70353			192292.00000
-7.73926			28.66173			192393.00000
-0.00732			-0.22685			193737.00000
-0.00732			-0.46563			193839.00000
-0.00732			-0.50243			193938.00000
-0.00732			-0.46098			194038.00000
-0.00732			-0.41943			194139.00000
-0.00732			-0.38827			194238.00000
-0.00732			-0.34079			194338.00000
-0.00732			-0.32306			194439.00000
-0.00732			-0.30761			194538.00000
-0.00732			-0.29466			194638.00000
7.99072			-38.08008			195744.00000
7.99072			-38.81571			195845.00000
7.99072			-38.82342			195944.00000
7.99072			-38.61528			196044.00000
7.99072			-38.44979			196145.00000
7.99072			-38.31683			196244.00000
7.99072			-38.20430			196344.00000
7.99072			-38.02049			196445.00000
7.99072			-37.94171			196544.00000
7.99072			-37.87093			196644.00000
-7.99072			30.29334			198998.00000
-7.99072			30.90930			199100.00000
-7.99072			30.93175			199199.00000
-7.99072			30.78136			199300.00000
-7.99072			30.67824			199399.00000
-7.99072			30.59793			199499.00000
-7.99072			30.53047			199600.00000
-7.99072			30.47017			199699.00000
-7.99072			30.36915			199799.00000
-7.99072			30.32602			199900.00000
-0.00732			-0.02542			201256.00000
-0.00732			-0.39395			201358.00000
-0.00732			-0.51102			201457.00000
-0.00732			-0.44419			201557.00000
-0.00732			-0.40641			201658.00000
-0.00732			-0.37851			201757.00000
-0.00732			-0.35715			201857.00000
-0.00732			-0.33724			201958.00000
-0.00732			-0.31877			202057.00000
-0.00732			-0.30374			202158.00000
8.23975			-39.19640			203298.00000
8.23975			-41.01635			203400.00000
8.23975			-40.86021			203499.00000
8.23975			-40.61097			203599.00000
8.23975			-40.44938			203700.00000
8.23975			-40.31833			203799.00000
8.23975			-40.20432			203899.00000
8.23975			-40.10448			204000.00000
8.23975			-39.93575			204099.00000
8.23975			-39.86416			204199.00000
-8.23975			31.90038			206591.00000
-8.23975			32.62693			206692.00000
-8.23975			32.74755			206791.00000
-8.23975			32.57910			206891.00000
-8.23975			32.45383			206992.00000
-8.23975			32.29125			207091.00000
-8.23975			32.22721			207192.00000
-8.23975			32.16958			207291.00000
-8.23975			32.11847			207391.00000
-8.23975			32.07187			207492.00000
-0.00732			-0.27355			208872.00000
-0.00732			-0.48544			208973.00000
-0.00732			-0.51540			209074.00000
-0.00732			-0.47325			209173.00000
-0.00732			-0.43112			209273.00000
-0.00732			-0.39920			209374.00000
-0.00732			-0.34810			209473.00000
-0.00732			-0.32960			209573.00000
-0.00732			-0.31286			209674.00000
-0.00732			-0.29821			209773.00000
8.48877			-41.99566			210910.00000
8.48877			-43.14823			211010.00000
8.48877			-43.34956			211110.00000
8.48877			-43.12862			211211.00000
8.48877			-42.91930			211310.00000
8.48877			-42.61750			211410.00000
8.48877			-42.49957			211511.00000
8.48877			-42.39458			211610.00000
8.48877			-42.30299			211710.00000
8.48877			-42.21977			211811.00000
-8.48877			33.97279			214220.00000
-8.48877			34.62712			214321.00000
-8.48877			34.62542			214420.00000
-8.48877			34.44281			214520.00000
-8.48877			34.32528			214621.00000
-8.48877			34.23311			214720.00000
-8.48877			34.15532			214820.00000
-8.48877			34.02811			214921.00000
-8.48877			33.97329			215020.00000
-8.48877			33.92357			215120.00000
-0.00732			-0.30736			216532.00000
-0.00732			-0.49200			216634.00000
-0.00732			-0.51331			216733.00000
-0.00732			-0.47101			216833.00000
-0.00732			-0.43027			216934.00000
-0.00732			-0.37107			217033.00000
-0.00732			-0.34875			217134.00000
-0.00732			-0.32799			217233.00000
-0.00732			-0.31304			217333.00000
-0.00732			-0.29828			217433.00000
8.73779			-43.83590			218593.00000
8.73779			-45.31786			218694.00000
8.73779			-45.52198			218794.00000
8.73779			-45.25243			218895.00000
8.73779			-45.07005			218994.00000
8.73779			-44.91922			219094.00000
8.73779			-44.78914			219195.00000
8.73779			-44.67450			219294.00000
8.73779			-44.57218			219395.00000
8.73779			-44.39711			219494.00000
-8.74268			34.93354			221940.00000
-8.74268			36.24685			222042.00000
-8.74268			36.58472			222141.00000
-8.74268			36.39909			222241.00000
-8.74268			36.28347			222342.00000
-8.74268			36.18995			222441.00000
-8.74268			36.10989			222541.00000
-8.74268			36.04017			222642.00000
-8.74268			35.97748			222741.00000
-8.74268			35.87236			222841.00000
-0.00732			-0.35846			224248.00000
-0.00732			-0.51967			224349.00000
-0.00732			-0.52103			224448.00000
-0.00732			-0.47465			224548.00000
-0.00732			-0.43321			224649.00000
-0.00732			-0.40020			224748.00000
-0.00732			-0.37351			224847.00000
-0.00732			-0.35114			224949.00000
-0.00732			-0.31550			225048.00000
-0.00732			-0.29974			225148.00000
8.98926			-46.56788			226310.00000
8.98926			-47.97526			226410.00000
8.98926			-48.28593			226510.00000
8.98926			-48.04297			226611.00000
8.98926			-47.60200			226710.00000
8.98926			-47.44212			226810.00000
8.98926			-47.30408			226911.00000
8.98926			-47.18267			227010.00000
8.98926			-47.07512			227110.00000
8.98926			-46.97778			227211.00000
-8.98682			37.00465			229668.00000
-8.98682			38.39006			229769.00000
-8.98682			38.80884			229868.00000
-8.98682			38.47555			229968.00000
-8.98682			38.35500			230069.00000
-8.98682			38.25614			230168.00000
-8.98682			38.17076			230268.00000
-8.98682			38.09707			230369.00000
-8.98682			38.03081			230468.00000
-8.98682			37.97106			230568.00000
-0.00732			-0.34802			231999.00000
-0.00732			-0.51218			232099.00000
-0.00732			-0.52266			232200.00000
-0.00732			-0.47639			232299.00000
-0.00732			-0.43436			232398.00000
-0.00732			-0.40061			232500.00000
-0.00732			-0.37351			232599.00000
-0.00732			-0.33171			232699.00000
-0.00732			-0.31392			232800.00000
-0.00732			-0.29856			232899.00000
9.23828			-48.36339			234091.00000
9.23828			-50.85716			234191.00000
9.23828			-50.73762			234292.00000
9.23828			-50.42346			234391.00000
9.23828			-50.20061			234491.00000
9.23828			-50.02107			234592.00000
9.23828			-49.86775			234691.00000
9.23828			-49.73270			234791.00000
9.23828			-49.50847			234892.00000
9.23828			-49.41127			234991.00000
-9.23828			39.38322			237498.00000
-9.23828			40.63364			237599.00000
-9.23828			41.01660			237700.00000
-9.23828			40.62866			237799.00000
-9.23828			40.49804			237899.00000
-9.23828			40.39126			238000.00000
-9.23828			40.30062			238099.00000
-9.23828			40.21946			238199.00000
-9.23828			40.14911			238300.00000
-9.23828			40.08557			238399.00000
-0.00732			-0.31605			239848.00000
-0.00732			-0.50364			239949.00000
-0.00732			-0.53063			240050.00000
-0.00732			-0.48737			240149.00000
-0.00732			-0.44344			240249.00000
-0.00732			-0.38135			240350.00000
-0.00732			-0.35730			240449.00000
-0.00732			-0.33553			240549.00000
-0.00732			-0.31834			240650.00000
-0.00732			-0.30087			240749.00000
9.48975			-52.56300			241946.00000
9.48975			-53.61199			242047.00000
9.48975			-53.68586			242148.00000
9.48975			-53.38140			242247.00000
9.48975			-53.12299			242347.00000
9.48975			-52.91642			242448.00000
9.48975			-52.59002			242547.00000
9.48975			-52.45814			242648.00000
9.48975			-52.33930			242747.00000
9.48975			-52.23049			242847.00000
-9.48975			42.33722			245379.00000
-9.48975			43.28722			245480.00000
-9.48975			43.37889			245580.00000
-9.48975			43.12713			245681.00000
-9.48975			42.95727			245780.00000
-9.48975			42.83059			245880.00000
-9.48975			42.63268			245981.00000
-9.48975			42.55260			246080.00000
-9.48975			42.48061			246180.00000
-9.48975			42.41433			246281.00000
-0.00732			-0.38359			247747.00000
-0.00732			-0.52387			247848.00000
-0.00732			-0.52706			247949.00000
-0.00732			-0.47938			248048.00000
-0.00732			-0.43642			248148.00000
-0.00732			-0.40325			248249.00000
-0.00732			-0.37454			248348.00000
-0.00732			-0.33013			248448.00000
-0.00732			-0.31258			248549.00000
-0.00732			-0.29725			248648.00000
9.73877			-55.58971			249864.00000
9.73877			-56.55748			249965.00000
9.73877			-56.49253			250066.00000
9.73877			-56.06353			250166.00000
9.73877			-55.78415			250265.00000
9.73877			-55.57224			250365.00000
9.73877			-55.23423			250466.00000
9.73877			-55.09470			250566.00000
9.73877			-54.97066			250665.00000
9.73877			-54.85758			250766.00000
-9.73877			44.69096			253308.00000
-9.73877			45.73328			253410.00000
-9.73877			45.85883			253509.00000
-9.73877			45.52343			253609.00000
-9.73877			45.29930			253710.00000
-9.73877			45.04059			253809.00000
-9.73877			44.94246			253909.00000
-9.73877			44.85632			254010.00000
-9.73877			44.77798			254109.00000
-9.73877			44.70687			254209.00000
-0.00732			-0.34735			255677.00000
-0.00732			-0.52397			255778.00000
-0.00732			-0.54048			255879.00000
-0.00732			-0.49250			255978.00000
-0.00732			-0.44492			256078.00000
-0.00732			-0.40863			256179.00000
-0.00732			-0.35458			256278.00000
-0.00732			-0.33392			256378.00000
-0.00732			-0.31548			256479.00000
-0.00732			-0.29931			256578.00000
9.99023			-58.02537			257812.00000
9.99023			-59.44658			257913.00000
9.99023			-59.74159			258014.00000
9.99023			-59.43615			258113.00000
9.99023			-58.86958			258213.00000
9.99023			-58.66292			258314.00000
9.99023			-58.48466			258413.00000
9.99023			-58.32784			258513.00000
9.99023			-58.18766			258614.00000
9.99023			-58.06119			258713.00000
-9.98779			47.26976			261318.00000
-9.98779			48.35039			261418.00000
-9.98779			48.52551			261519.00000
-9.98779			48.24251			261618.00000
-9.98779			48.03168			261718.00000
-9.98779			47.75932			261819.00000
-9.98779			47.65212			261918.00000
-9.98779			47.55668			262019.00000
-9.98779			47.47172			262118.00000
-9.98779			47.39750			262218.00000
-0.00732			-0.27523			263716.00000
-0.00732			-0.48999			263817.00000
-0.00732			-0.53918			263916.00000
-0.00732			-0.45311			264016.00000
-0.00732			-0.41350			264117.00000
-0.00732			-0.38402			264216.00000
-0.00732			-0.35732			264316.00000
-0.00732			-0.33330			264417.00000
-0.00732			-0.31409			264516.00000
-0.00732			-0.29607			264616.00000
10.23682			-59.83911			265850.00000
10.23682			-63.00784			265952.00000
10.23682			-62.69616			266051.00000
10.23682			-62.22420			266151.00000
10.23682			-61.93228			266252.00000
10.23682			-61.69694			266351.00000
10.23682			-61.49684			266451.00000
10.23682			-61.32082			266552.00000
10.23682			-61.16531			266651.00000
10.23682			-60.90019			266751.00000
-10.23926			48.95612			269357.00000
-10.23926			50.79296			269456.00000
-10.23926			51.04542			269556.00000
-10.23926			50.70117			269657.00000
-10.23926			50.52484			269756.00000
-10.23926			50.38369			269856.00000
-10.23926			50.26090			269957.00000
-10.23926			50.15400			270056.00000
-10.23926			50.05967			270156.00000
-10.23926			49.97411			270257.00000
-0.00732			-0.12606			271741.00000
-0.00732			-0.44844			271842.00000
-0.00732			-0.52450			271941.00000
-0.00732			-0.46980			272041.00000
-0.00732			-0.42763			272142.00000
-0.00732			-0.39299			272241.00000
-0.00732			-0.36426			272341.00000
-0.00732			-0.34013			272442.00000
-0.00732			-0.31894			272541.00000
-0.00732			-0.28275			272641.00000
10.48828			-64.85448			273888.00000
10.48828			-66.24972			273989.00000
10.48828			-66.37289			274089.00000
10.48828			-65.91407			274190.00000
10.48828			-65.55653			274289.00000
10.48828			-65.28258			274389.00000
10.48828			-64.85365			274490.00000
10.48828			-64.67584			274589.00000
10.48828			-64.51732			274689.00000
10.48828			-64.37435			274790.00000
-10.48828			52.82412			277406.00000
-10.48828			54.08602			277507.00000
-10.48828			54.22703			277606.00000
-10.48828			53.87316			277706.00000
-10.48828			53.63548			277807.00000
-10.48828			53.46436			277906.00000
-10.48828			53.19376			278006.00000
-10.48828			53.08337			278107.00000
-10.48828			52.98589			278206.00000
-10.48828			52.89746			278306.00000
-0.00732			-0.24080			279822.00000
-0.00732			-0.47669			279923.00000
-0.00732			-0.50756			280024.00000
-0.00732			-0.45540			280123.00000
-0.00732			-0.41240			280223.00000
-0.00732			-0.38412			280324.00000
-0.00732			-0.35499			280423.00000
-0.00732			-0.33154			280523.00000
-0.00732			-0.31045			280624.00000
-0.00732			-0.29099			280723.00000
10.73975			-68.32446			281994.00000
10.73975			-69.78700			282094.00000
10.73975			-69.91242			282194.00000
10.73975			-69.32210			282295.00000
10.73975			-68.90368			282395.00000
10.73975			-68.36871			282494.00000
10.73975			-68.15571			282595.00000
10.73975			-67.96748			282694.00000
10.73975			-67.80070			282794.00000
10.73975			-67.64937			282895.00000
-10.74219			54.90535			285547.00000
-10.74219			56.80277			285648.00000
-10.74219			57.06056			285749.00000
-10.74219			56.64525			285848.00000
-10.74219			56.43859			285948.00000
-10.74219			56.27418			286049.00000
-10.74219			56.13410			286148.00000
-10.74219			56.00991			286248.00000
-10.74219			55.90012			286349.00000
-10.74219			55.71299			286448.00000
-0.00732			-0.35330			287983.00000
-0.00732			-0.51819			288083.00000
-0.00732			-0.53815			288184.00000
-0.00732			-0.49187			288283.00000
-0.00732			-0.40385			288383.00000
-0.00732			-0.37316			288484.00000
-0.00732			-0.34579			288583.00000
-0.00732			-0.32088			288683.00000
-0.00732			-0.30303			288784.00000
-0.00732			-0.28619			288883.00000
10.98633			-72.34220			290160.00000
10.98633			-73.72457			290261.00000
10.98633			-73.69660			290362.00000
10.98633			-73.09859			290461.00000
10.98633			-72.68536			290561.00000
10.98633			-72.37500			290662.00000
10.98633			-71.88705			290761.00000
10.98633			-71.68766			290862.00000
10.98633			-71.50822			290961.00000
10.98633			-71.34554			291061.00000
-10.98877			59.62970			293751.00000
-10.98877			60.62666			293853.00000
-10.98877			60.49731			293953.00000
-10.98877			60.05192			294052.00000
-10.98877			59.79843			294153.00000
-10.98877			59.60553			294252.00000
-10.98877			59.44179			294352.00000
-10.98877			59.17561			294453.00000
-10.98877			59.06452			294552.00000
-10.98877			58.96413			294652.00000
-0.00732			-0.22645			296181.00000
-0.00732			-0.48041			296282.00000
-0.00732			-0.55109			296381.00000
-0.00732			-0.45741			296481.00000
-0.00732			-0.41328			296582.00000
-0.00732			-0.38316			296681.00000
-0.00732			-0.35642			296781.00000
-0.00732			-0.32500			296882.00000
-0.00732			-0.30228			296981.00000
-0.00732			-0.28534			297081.00000
10.98877			-71.13893			298358.00000
10.98877			-72.87885			298460.00000
10.98877			-73.12470			298559.00000
10.98877			-72.57653			298659.00000
10.98877			-71.81670			298760.00000
10.98877			-71.55431			298859.00000
10.98877			-71.32740			298959.00000
10.98877			-71.12740			299060.00000
10.98877			-70.94987			299159.00000
10.98877			-70.79049			299259.00000
-10.98877			58.97323			301943.00000
-10.98877			60.16664			302045.00000
-10.98877			60.16546			302144.00000
-10.98877			59.71833			302244.00000
-10.98877			59.45122			302345.00000
-10.98877			59.25897			302444.00000
-10.98877			58.95578			302544.00000
-10.98877			58.83315			302645.00000
-10.98877			58.72230			302744.00000
-10.98877			58.62212			302844.00000
-0.00732			-0.17592			304373.00000
-0.00732			-0.45347			304474.00000
-0.00732			-0.51402			304573.00000
-0.00732			-0.46199			304673.00000
-0.00732			-0.41727			304774.00000
-0.00732			-0.37778			304873.00000
-0.00732			-0.34584			304973.00000
-0.00732			-0.32045			305074.00000
-0.00732			-0.29889			305173.00000
-0.00732			-0.26282			305273.00000
10.73730			-66.34267			306550.00000
10.73730			-67.95280			306652.00000
10.73730			-68.22503			306752.00000
10.73730			-67.70491			306851.00000
10.73730			-66.98718			306952.00000
10.73730			-66.75018			307051.00000
10.73730			-66.54737			307151.00000
10.73730			-66.36856			307252.00000
10.73730			-66.20870			307351.00000
10.73730			-66.06767			307451.00000
-10.73975			55.44877			310117.00000
-10.73975			56.32254			310218.00000
-10.73975			56.19857			310319.00000
-10.73975			55.72784			310418.00000
-10.73975			55.49379			310518.00000
-10.73975			55.32855			310619.00000
-10.73975			55.18749			310718.00000
-10.73975			54.95557			310818.00000
-10.73975			54.85885			310919.00000
-10.73975			54.77078			311018.00000
-0.00732			-0.26013			312553.00000
-0.00732			-0.47423			312653.00000
-0.00732			-0.48722			312754.00000
-0.00732			-0.43421			312853.00000
-0.00732			-0.39249			312953.00000
-0.00732			-0.35652			313054.00000
-0.00732			-0.32812			313153.00000
-0.00732			-0.30326			313253.00000
-0.00732			-0.28320			313354.00000
-0.00732			-0.24761			313453.00000
10.49072			-62.53291			314699.00000
10.49072			-63.83148			314801.00000
10.49072			-63.93692			314900.00000
10.49072			-63.51033			315000.00000
10.49072			-63.17405			315101.00000
10.49072			-62.91239			315200.00000
10.49072			-62.50465			315300.00000
10.49072			-62.33929			315401.00000
10.49072			-62.19361			315500.00000
10.49072			-62.06180			315600.00000
-10.48828			51.39826			318224.00000
-10.48828			52.64742			318324.00000
-10.48828			52.79989			318425.00000
-10.48828			52.45637			318524.00000
-10.48828			52.22478			318624.00000
-10.48828			52.05861			318725.00000
-10.48828			51.79801			318824.00000
-10.48828			51.69207			318924.00000
-10.48828			51.59937			319025.00000
-10.48828			51.51461			319124.00000
-0.00732			-0.23673			320639.00000
-0.00732			-0.45739			320741.00000
-0.00732			-0.47930			320840.00000
-0.00732			-0.42632			320941.00000
-0.00732			-0.38279			321040.00000
-0.00732			-0.34993			321140.00000
-0.00732			-0.32095			321241.00000
-0.00732			-0.29273			321340.00000
-0.00732			-0.27546			321440.00000
-0.00732			-0.25719			321541.00000
10.23926			-56.77437			322773.00000
10.23926			-60.07915			322875.00000
10.23926			-59.84638			322974.00000
10.23926			-59.37089			323075.00000
10.23926			-59.07973			323174.00000
10.23926			-58.85040			323274.00000
10.23926			-58.65724			323375.00000
10.23926			-58.48984			323474.00000
10.23926			-58.21252			323574.00000
10.23926			-58.09371			323675.00000
-10.23926			46.89022			326285.00000
-10.23926			49.62476			326385.00000
-10.23926			49.42753			326485.00000
-10.23926			49.06455			326586.00000
-10.23926			48.87499			326685.00000
-10.23926			48.73099			326785.00000
-10.23926			48.60938			326886.00000
-10.23926			48.50339			326985.00000
-10.23926			48.32717			327086.00000
-10.23926			48.25206			327186.00000
-0.00732			-0.39390			328671.00000
-0.00732			-0.51236			328771.00000
-0.00732			-0.49403			328871.00000
-0.00732			-0.43891			328972.00000
-0.00732			-0.39387			329071.00000
-0.00732			-0.35639			329171.00000
-0.00732			-0.32865			329272.00000
-0.00732			-0.30112			329371.00000
-0.00732			-0.25510			329471.00000
-0.00732			-0.24110			329572.00000
9.99023			-55.31911			330805.00000
9.99023			-56.35303			330906.00000
9.99023			-56.42842			331006.00000
9.99023			-56.07555			331107.00000
9.99023			-55.78290			331206.00000
9.99023			-55.55533			331306.00000
9.99023			-55.20195			331407.00000
9.99023			-55.05846			331506.00000
9.99023			-54.93029			331606.00000
9.99023			-54.81673			331707.00000
-9.98779			45.75073			334311.00000
-9.98779			46.54851			334411.00000
-9.98779			46.55346			334512.00000
-9.98779			46.26944			334611.00000
-9.98779			46.08796			334711.00000
-9.98779			45.95060			334812.00000
-9.98779			45.83242			334911.00000
-9.98779			45.64410			335011.00000
-9.98779			45.56523			335112.00000
-9.98779			45.49317			335211.00000
-0.00732			-0.32867			336709.00000
-0.00732			-0.47732			336809.00000
-0.00732			-0.48906			336910.00000
-0.00732			-0.44004			337009.00000
-0.00732			-0.39012			337109.00000
-0.00732			-0.32329			337210.00000
-0.00732			-0.29783			337309.00000
-0.00732			-0.27139			337409.00000
-0.00732			-0.24839			337510.00000
-0.00732			-0.23336			337609.00000
9.73877			-51.71205			338825.00000
9.73877			-52.93698			338926.00000
9.73877			-53.06736			339026.00000
9.73877			-52.66128			339127.00000
9.73877			-52.12937			339226.00000
9.73877			-51.94591			339326.00000
9.73877			-51.78899			339427.00000
9.73877			-51.65256			339526.00000
9.73877			-51.53121			339626.00000
9.73877			-51.42210			339727.00000
-9.73877			42.22137			342270.00000
-9.73877			43.50959			342371.00000
-9.73877			43.83841			342470.00000
-9.73877			43.32022			342570.00000
-9.73877			43.16740			342671.00000
-9.73877			43.04507			342770.00000
-9.73877			42.94161			342870.00000
-9.73877			42.85226			342971.00000
-9.73877			42.77364			343070.00000
-9.73877			42.70381			343171.00000
-0.00732			-0.26103			344643.00000
-0.00732			-0.45957			344743.00000
-0.00732			-0.49338			344844.00000
-0.00732			-0.44841			344943.00000
-0.00732			-0.35851			345043.00000
-0.00732			-0.32508			345144.00000
-0.00732			-0.29977			345243.00000
-0.00732			-0.27551			345343.00000
-0.00732			-0.25369			345444.00000
-0.00732			-0.23559			345543.00000
9.48975			-48.62362			346740.00000
9.48975			-49.83150			346842.00000
9.48975			-50.03191			346941.00000
9.48975			-49.74175			347041.00000
9.48975			-49.46735			347142.00000
9.48975			-49.07828			347241.00000
9.48975			-48.92891			347341.00000
9.48975			-48.79808			347442.00000
9.48975			-48.68122			347541.00000
9.48975			-48.57684			347641.00000
-9.48975			39.93416			350174.00000
-9.48975			41.03464			350274.00000
-9.48975			41.24625			350374.00000
-9.48975			41.01282			350475.00000
-9.48975			40.82673			350574.00000
-9.48975			40.58810			350674.00000
-9.48975			40.49424			350775.00000
-9.48975			40.41253			350874.00000
-9.48975			40.34150			350974.00000
-9.48975			40.27718			351075.00000
-0.00732			-0.31233			352541.00000
-0.00732			-0.46204			352641.00000
-0.00732			-0.47252			352742.00000
-0.00732			-0.42335			352841.00000
-0.00732			-0.37663			352942.00000
-0.00732			-0.30806			353041.00000
-0.00732			-0.28423			353141.00000
-0.00732			-0.25967			353242.00000
-0.00732			-0.23939			353341.00000
-0.00732			-0.22195			353441.00000
9.23828			-46.25595			354633.00000
9.23828			-47.00766			354734.00000
9.23828			-46.95777			354833.00000
9.23828			-46.62739			354933.00000
9.23828			-46.38967			355034.00000
9.23828			-46.20397			355134.00000
9.23828			-46.04823			355233.00000
9.23828			-45.79417			355334.00000
9.23828			-45.69036			355433.00000
9.23828			-45.59633			355533.00000
-9.24072			37.01598			358035.00000
-9.24072			38.33494			358136.00000
-9.24072			38.66620			358237.00000
-9.24072			38.44775			358336.00000
-9.24072			38.31602			358436.00000
-9.24072			38.20838			358537.00000
-9.24072			38.11634			358636.00000
-9.24072			38.03789			358736.00000
-9.24072			37.96752			358837.00000
-9.24072			37.84943			358936.00000
-0.00732			-0.27395			360367.00000
-0.00732			-0.45741			360468.00000
-0.00732			-0.47342			360568.00000
-0.00732			-0.42393			360669.00000
-0.00732			-0.37633			360768.00000
-0.00732			-0.33606			360868.00000
-0.00732			-0.28230			360969.00000
-0.00732			-0.25656			361068.00000
-0.00732			-0.23658			361168.00000
-0.00732			-0.22036			361269.00000
8.99170			-42.31259			362428.00000
8.99170			-43.91515			362529.00000
8.99170			-44.21365			362630.00000
8.99170			-43.93863			362729.00000
8.99170			-43.73111			362829.00000
8.99170			-43.56208			362930.00000
8.99170			-43.41916			363029.00000
8.99170			-43.29595			363129.00000
8.99170			-43.18689			363230.00000
8.99170			-43.08906			363329.00000
-8.98682			34.28245			365788.00000
-8.98682			36.52369			365889.00000
-8.98682			36.46278			365989.00000
-8.98682			36.25258			366090.00000
-8.98682			36.11841			366189.00000
-8.98682			36.01272			366289.00000
-8.98682			35.92392			366390.00000
-8.98682			35.84602			366489.00000
-8.98682			35.71751			366589.00000
-8.98682			35.66344			366690.00000
-0.00732			-0.23849			368120.00000
-0.00732			-0.43265			368221.00000
-0.00732			-0.46420			368320.00000
-0.00732			-0.41649			368420.00000
-0.00732			-0.36524			368521.00000
-0.00732			-0.30032			368620.00000
-0.00732			-0.27398			368719.00000
-0.00732			-0.25191			368821.00000
-0.00732			-0.23353			368920.00000
-0.00732			-0.21514			369020.00000
8.74023			-39.89825			370182.00000
8.74023			-41.80846			370282.00000
8.74023			-41.60755			370382.00000
8.74023			-41.31363			370483.00000
8.74023			-41.11715			370582.00000
8.74023			-40.95802			370682.00000
8.74023			-40.82467			370783.00000
8.74023			-40.70870			370882.00000
8.74023			-40.60575			370982.00000
8.74023			-40.43327			371083.00000
-8.74268			32.62052			373528.00000
-8.74268			34.40722			373628.00000
-8.74268			34.31784			373729.00000
-8.74268			34.11696			373828.00000
-8.74268			33.99586			373928.00000
-8.74268			33.89889			374029.00000
-8.74268			33.81710			374128.00000
-8.74268			33.74614			374228.00000
-8.74268			33.62793			374329.00000
-8.74268			33.57849			374428.00000
-0.00732			-0.30462			375828.00000
-0.00732			-0.45286			375929.00000
-0.00732			-0.44914			376030.00000
-0.00732			-0.39450			376129.00000
-0.00732			-0.34800			376229.00000
-0.00732			-0.31447			376330.00000
-0.00732			-0.28567			376429.00000
-0.00732			-0.23798			376529.00000
-0.00732			-0.21989			376630.00000
-0.00732			-0.20352			376729.00000
8.49121			-38.53698			377865.00000
8.49121			-39.34912			377966.00000
8.49121			-39.36659			378066.00000
8.49121			-39.11001			378167.00000
8.49121			-38.90132			378266.00000
8.49121			-38.73656			378366.00000
8.49121			-38.48106			378467.00000
8.49121			-38.37833			378566.00000
8.49121			-38.28775			378666.00000
8.49121			-38.20575			378767.00000
-8.48877			30.59687			381176.00000
-8.48877			32.40087			381277.00000
-8.48877			32.31425			381376.00000
-8.48877			32.13604			381476.00000
-8.48877			32.02218			381577.00000
-8.48877			31.92953			381676.00000
-8.48877			31.85267			381776.00000
-8.48877			31.78501			381877.00000
-8.48877			31.72566			381976.00000
-8.48877			31.62445			382076.00000
-0.00732			-0.31784			383488.00000
-0.00732			-0.43713			383590.00000
-0.00732			-0.42971			383689.00000
-0.00732			-0.37756			383790.00000
-0.00732			-0.33428			383889.00000
-0.00732			-0.30112			383989.00000
-0.00732			-0.27408			384090.00000
-0.00732			-0.22924			384189.00000
-0.00732			-0.20950			384289.00000
-0.00732			-0.19138			384390.00000
8.23975			-36.37598			385524.00000
8.23975			-37.07124			385626.00000
8.23975			-37.07772			385725.00000
8.23975			-36.79857			385825.00000
8.23975			-36.59445			385926.00000
8.23975			-36.44306			386025.00000
8.23975			-36.20629			386125.00000
8.23975			-36.11080			386226.00000
8.23975			-36.02610			386325.00000
8.23975			-35.94981			386425.00000
-8.24219			29.13547			388824.00000
-8.24219			30.18541			388923.00000
-8.24219			30.41221			389023.00000
-8.24219			30.24310			389124.00000
-8.24219			30.14088			389223.00000
-8.24219			30.05690			389323.00000
-8.24219			29.98670			389424.00000
-8.24219			29.92577			389523.00000
-8.24219			29.87082			389623.00000
-8.24219			29.77574			389724.00000
-0.00732			-0.08632			391098.00000
-0.00732			-0.36949			391198.00000
-0.00732			-0.44344			391300.00000
-0.00732			-0.35961			391399.00000
-0.00732			-0.32038			391499.00000
-0.00732			-0.29009			391600.00000
-0.00732			-0.26194			391699.00000
-0.00732			-0.23776			391799.00000
-0.00732			-0.21933			391900.00000
-0.00732			-0.20340			391999.00000
7.98828			-33.83425			393105.00000
7.98828			-34.84246			393205.00000
7.98828			-35.04158			393306.00000
7.98828			-34.83957			393405.00000
7.98828			-34.48039			393505.00000
7.98828			-34.35133			393606.00000
7.98828			-34.24219			393705.00000
7.98828			-34.14587			393805.00000
7.98828			-34.06064			393906.00000
7.98828			-33.98539			394005.00000
-7.98828			27.66186			396360.00000
-7.98828			28.55282			396461.00000
-7.98828			28.76644			396560.00000
-7.98828			28.62664			396660.00000
-7.98828			28.40427			396761.00000
-7.98828			28.32741			396860.00000
-7.98828			28.26173			396960.00000
-7.98828			28.20437			397061.00000
-7.98828			28.15332			397160.00000
-7.98828			28.10826			397260.00000
-0.00732			-0.24223			398617.00000
-0.00732			-0.41986			398718.00000
-0.00732			-0.42607			398819.00000
-0.00732			-0.37472			398918.00000
-0.00732			-0.32970			399018.00000
-0.00732			-0.29501			399119.00000
-0.00732			-0.26721			399218.00000
-0.00732			-0.22308			399318.00000
-0.00732			-0.20367			399418.00000
-0.00732			-0.18827			399518.00000
7.73926			-31.36418			400612.00000
7.73926			-32.64182			400713.00000
7.73926			-32.89887			400814.00000
7.73926			-32.67718			400913.00000
7.73926			-32.51961			401013.00000
7.73926			-32.39092			401114.00000
7.73926			-32.28349			401213.00000
7.73926			-32.19067			401313.00000
7.73926			-32.10747			401414.00000
7.73926			-31.96886			401513.00000
-7.74170			26.06958			403837.00000
-7.74170			26.90047			403938.00000
-7.74170			27.09740			404037.00000
-7.74170			26.95204			404137.00000
-7.74170			26.73709			404238.00000
-7.74170			26.66601			404337.00000
-7.74170			26.60305			404437.00000
-7.74170			26.54951			404538.00000
-7.74170			26.50223			404637.00000
-7.74170			26.45955			404737.00000
-0.00732			0.11765			406083.00000
-0.00732			-0.41617			406183.00000
-0.00732			-0.40593			406284.00000
-0.00732			-0.35388			406383.00000
-0.00732			-0.31291			406483.00000
-0.00732			-0.28091			406584.00000
-0.00732			-0.25490			406683.00000
-0.00732			-0.23165			406783.00000
-0.00732			-0.19450			406884.00000
-0.00732			-0.17804			406983.00000
7.49268			-30.04876			408064.00000
7.49268			-30.97555			408166.00000
7.49268			-31.16841			408265.00000
7.49268			-30.99636			408366.00000
7.49268			-30.67764			408465.00000
7.49268			-30.56227			408565.00000
7.49268			-30.46435			408666.00000
7.49268			-30.37808			408765.00000
7.49268			-30.30409			408865.00000
7.49268			-30.23746			408966.00000
-7.49023			23.99999			411264.00000
-7.49023			25.50907			411366.00000
-7.49023			25.47484			411465.00000
-7.49023			25.34034			411566.00000
-7.49023			25.24814			411665.00000
-7.49023			25.17475			411765.00000
-7.49023			25.11304			411866.00000
-7.49023			25.05820			411965.00000
-7.49023			24.96912			412065.00000
-7.49023			24.93179			412166.00000
-0.00732			-0.18103			413492.00000
-0.00732			-0.38615			413592.00000
-0.00732			-0.40945			413693.00000
-0.00732			-0.36220			413794.00000
-0.00732			-0.31909			413893.00000
-0.00732			-0.28504			413993.00000
-0.00732			-0.23263			414094.00000
-0.00732			-0.21124			414193.00000
-0.00732			-0.19354			414293.00000
-0.00732			-0.17934			414394.00000
7.24121			-28.23889			415462.00000
7.24121			-29.14499			415563.00000
7.24121			-29.34521			415664.00000
7.24121			-28.99616			415763.00000
7.24121			-28.86468			415863.00000
7.24121			-28.75705			415964.00000
7.24121			-28.66475			416063.00000
7.24121			-28.58410			416163.00000
7.24121			-28.51372			416264.00000
7.24121			-28.45005			416363.00000
-7.24121			23.01495			418632.00000
-7.24121			23.81756			418734.00000
-7.24121			24.04267			418833.00000
-7.24121			23.81602			418933.00000
-7.24121			23.73607			419034.00000
-7.24121			23.67034			419133.00000
-7.24121			23.61623			419233.00000
-7.24121			23.56694			419334.00000
-7.24121			23.52353			419433.00000
-7.24121			23.48590			419533.00000
-0.00732			0.05750			420848.00000
-0.00732			-0.29009			420949.00000
-0.00732			-0.38022			421050.00000
-0.00732			-0.33355			421149.00000
-0.00732			-0.29285			421249.00000
-0.00732			-0.26194			421350.00000
-0.00732			-0.23836			421449.00000
-0.00732			-0.21421			421550.00000
-0.00732			-0.19365			421649.00000
-0.00732			-0.16642			421749.00000
6.99219			-25.89571			422800.00000
6.99219			-27.63141			422901.00000
6.99219			-27.58988			423002.00000
6.99219			-27.41653			423101.00000
6.99219			-27.27974			423201.00000
6.99219			-27.16900			423302.00000
6.99219			-27.07610			423401.00000
6.99219			-26.99579			423501.00000
6.99219			-26.86368			423602.00000
6.99219			-26.80740			423701.00000
-6.98975			21.46417			425947.00000
-6.98975			22.34942			426047.00000
-6.98975			22.57008			426147.00000
-6.98975			22.45582			426248.00000
-6.98975			22.37858			426347.00000
-6.98975			22.31489			426447.00000
-6.98975			22.26112			426548.00000
-6.98975			22.21518			426647.00000
-6.98975			22.17340			426747.00000
-6.98975			22.10260			426848.00000
-0.00732			0.06233			428149.00000
-0.00732			-0.27920			428250.00000
-0.00732			-0.37047			428349.00000
-0.00732			-0.32271			428449.00000
-0.00732			-0.28368			428550.00000
-0.00732			-0.25399			428649.00000
-0.00732			-0.23203			428749.00000
-0.00732			-0.21401			428850.00000
-0.00732			-0.19143			428949.00000
-0.00732			-0.15858			429049.00000
6.74072			-24.62641			430083.00000
6.74072			-25.68988			430182.00000
6.74072			-25.90363			430282.00000
6.74072			-25.73899			430383.00000
6.74072			-25.61621			430482.00000
6.74072			-25.51619			430582.00000
6.74072			-25.43199			430683.00000
6.74072			-25.35739			430782.00000
6.74072			-25.29350			430882.00000
6.74072			-25.23714			430983.00000
-6.74072			20.83225			433190.00000
-6.74072			21.25896			433291.00000
-6.74072			21.27357			433390.00000
-6.74072			21.15415			433490.00000
-6.74072			21.07211			433591.00000
-6.74072			21.00804			433690.00000
-6.74072			20.95518			433790.00000
-6.74072			20.86615			433891.00000
-6.74072			20.83152			433990.00000
-6.74072			20.79995			434090.00000
-0.00732			0.16516			435376.00000
-0.00732			-0.37406			435476.00000
-0.00732			-0.36725			435576.00000
-0.00732			-0.31970			435677.00000
-0.00732			-0.28061			435776.00000
-0.00732			-0.25010			435875.00000
-0.00732			-0.22552			435977.00000
-0.00732			-0.20272			436076.00000
-0.00732			-0.16861			436176.00000
-0.00732			-0.15622			436277.00000
6.49170			-23.20767			437303.00000
6.49170			-24.17361			437403.00000
6.49170			-24.36393			437503.00000
6.49170			-24.21812			437604.00000
6.49170			-24.10526			437703.00000
6.49170			-24.01201			437803.00000
6.49170			-23.93327			437904.00000
6.49170			-23.86432			438003.00000
6.49170			-23.80440			438104.00000
6.49170			-23.70218			438203.00000
-6.48926			18.91585			440387.00000
-6.48926			20.02411			440487.00000
-6.48926			19.97786			440588.00000
-6.48926			19.87614			440687.00000
-6.48926			19.80528			440787.00000
-6.48926			19.74770			440888.00000
-6.48926			19.70002			440987.00000
-6.48926			19.65779			441087.00000
-6.48926			19.61936			441188.00000
-6.48926			19.55406			441287.00000
-0.00732			-0.01237			442559.00000
-0.00732			-0.30150			442660.00000
-0.00732			-0.37115			442760.00000
-0.00732			-0.33654			442860.00000
-0.00732			-0.25784			442960.00000
-0.00732			-0.22735			443061.00000
-0.00732			-0.20946			443160.00000
-0.00732			-0.19236			443260.00000
-0.00732			-0.17374			443361.00000
-0.00732			-0.15783			443460.00000
6.24268			-22.41946			444456.00000
6.24268			-22.94554			444557.00000
6.24268			-22.94644			444656.00000
6.24268			-22.79314			444756.00000
6.24268			-22.67438			444857.00000
6.24268			-22.58032			444957.00000
6.24268			-22.50175			445056.00000
6.24268			-22.37474			445157.00000
6.24268			-22.32111			445256.00000
6.24268			-22.27438			445357.00000
-6.24512			18.05506			447479.00000
-6.24512			18.70384			447580.00000
-6.24512			18.85241			447679.00000
-6.24512			18.76600			447779.00000
-6.24512			18.61687			447880.00000
-6.24512			18.56479			447979.00000
-6.24512			18.52194			448079.00000
-6.24512			18.48346			448180.00000
-6.24512			18.44779			448279.00000
-6.24512			18.41655			448379.00000
-0.00732			0.20904			449627.00000
-0.00732			-0.35665			449728.00000
-0.00732			-0.34408			449828.00000
-0.00732			-0.29715			449929.00000
-0.00732			-0.25983			450028.00000
-0.00732			-0.23037			450128.00000
-0.00732			-0.20674			450229.00000
-0.00732			-0.18804			450328.00000
-0.00732			-0.15604			450428.00000
-0.00732			-0.14338			450529.00000
5.99121			-20.87059			451506.00000
5.99121			-21.47345			451606.00000
5.99121			-21.54323			451706.00000
5.99121			-21.41690			451807.00000
5.99121			-21.30309			451906.00000
5.99121			-21.21145			452006.00000
5.99121			-21.07182			452107.00000
5.99121			-21.01514			452206.00000
5.99121			-20.96422			452306.00000
5.99121			-20.91880			452407.00000
-5.99121			17.06486			454504.00000
-5.99121			17.60662			454605.00000
-5.99121			17.69977			454706.00000
-5.99121			17.60745			454805.00000
-5.99121			17.53064			454905.00000
-5.99121			17.42482			455006.00000
-5.99121			17.38415			455105.00000
-5.99121			17.34753			455205.00000
-5.99121			17.31518			455306.00000
-5.99121			17.28648			455405.00000
-0.00732			0.06660			456641.00000
-0.00732			-0.25907			456741.00000
-0.00732			-0.34388			456842.00000
-0.00732			-0.27078			456941.00000
-0.00732			-0.23725			457041.00000
-0.00732			-0.21106			457142.00000
-0.00732			-0.18935			457241.00000
-0.00732			-0.17120			457341.00000
-0.00732			-0.15456			457442.00000
-0.00732			-0.14053			457541.00000
5.73975			-18.87185			458513.00000
5.73975			-20.16902			458614.00000
5.73975			-20.12898			458715.00000
5.73975			-20.00343			458814.00000
5.73975			-19.90892			458914.00000
5.73975			-19.83186			459015.00000
5.73975			-19.76608			459114.00000
5.73975			-19.70822			459214.00000
5.73975			-19.61323			459315.00000
5.73975			-19.57239			459414.00000
-5.74219			15.66487			461501.00000
-5.74219			16.61426			461602.00000
-5.74219			16.58169			461703.00000
-5.74219			16.49525			461802.00000
-5.74219			16.43407			461902.00000
-5.74219			16.38604			462003.00000
-5.74219			16.34572			462102.00000
-5.74219			16.30950			462202.00000
-5.74219			16.27756			462303.00000
-5.74219			16.22218			462402.00000
-0.00732			-0.14838			463626.00000
-0.00732			-0.31238			463726.00000
-0.00732			-0.31977			463826.00000
-0.00732			-0.27807			463927.00000
-0.00732			-0.24500			464026.00000
-0.00732			-0.22074			464126.00000
-0.00732			-0.19782			464227.00000
-0.00732			-0.17512			464326.00000
-0.00732			-0.14393			464426.00000
-0.00732			-0.13194			464527.00000
5.49072			-18.46957			465473.00000
5.49072			-18.86695			465574.00000
5.49072			-18.86931			465675.00000
5.49072			-18.75731			465774.00000
5.49072			-18.66379			465874.00000
5.49072			-18.58926			465975.00000
5.49072			-18.52632			466074.00000
5.49072			-18.47125			466174.00000
5.49072			-18.38104			466275.00000
5.49072			-18.34181			466374.00000
-5.48828			15.12062			468400.00000
-5.48828			15.53251			468501.00000
-5.48828			15.58179			468601.00000
-5.48828			15.49792			468702.00000
-5.48828			15.43257			468801.00000
-5.48828			15.38252			468901.00000
-5.48828			15.30383			469002.00000
-5.48828			15.27093			469101.00000
-5.48828			15.24265			469201.00000
-5.48828			15.21744			469302.00000
-0.00732			-0.06277			470506.00000
-0.00732			-0.28514			470607.00000
-0.00732			-0.31693			470708.00000
-0.00732			-0.27674			470807.00000
-0.00732			-0.23824			470907.00000
-0.00732			-0.20983			471008.00000
-0.00732			-0.16969			471107.00000
-0.00732			-0.15180			471207.00000
-0.00732			-0.13764			471308.00000
-0.00732			-0.12601			471407.00000
5.23926			-17.25391			472336.00000
5.23926			-17.64406			472437.00000
5.23926			-17.63358			472538.00000
5.23926			-17.51735			472637.00000
5.23926			-17.43001			472737.00000
5.23926			-17.36011			472838.00000
5.23926			-17.30099			472937.00000
5.23926			-17.25175			473037.00000
5.23926			-17.16697			473138.00000
5.23926			-17.13145			473237.00000
-5.24170			13.61209			475226.00000
-5.24170			14.61329			475327.00000
-5.24170			14.58630			475427.00000
-5.24170			14.50426			475528.00000
-5.24170			14.44919			475627.00000
-5.24170			14.40434			475727.00000
-5.24170			14.36614			475828.00000
-5.24170			14.33359			475927.00000
-5.24170			14.30549			476027.00000
-5.24170			14.25454			476128.00000
-0.00732			0.09830			477301.00000
-0.00732			-0.22898			477403.00000
-0.00732			-0.30942			477502.00000
-0.00732			-0.27853			477602.00000
-0.00732			-0.20935			477703.00000
-0.00732			-0.18389			477802.00000
-0.00732			-0.16270			477902.00000
-0.00732			-0.14845			478002.00000
-0.00732			-0.13325			478102.00000
-0.00732			-0.12063			478202.00000
4.99023			-15.02517			479107.00000
4.99023			-16.46983			479208.00000
4.99023			-16.46734			479308.00000
4.99023			-16.36692			479409.00000
4.99023			-16.28536			479508.00000
4.99023			-16.22081			479608.00000
4.99023			-16.16619			479709.00000
4.99023			-16.11821			479808.00000
4.99023			-16.03906			479908.00000
4.99023			-16.00563			480009.00000
-4.99023			13.12309			481954.00000
-4.99023			13.60548			482056.00000
-4.99023			13.69343			482155.00000
-4.99023			13.62081			482255.00000
-4.99023			13.55807			482356.00000
-4.99023			13.47038			482455.00000
-4.99023			13.43680			482555.00000
-4.99023			13.40747			482656.00000
-4.99023			13.38173			482755.00000
-4.99023			13.35687			482855.00000
-0.00732			0.28040			484030.00000
-0.00732			-0.28174			484131.00000
-0.00732			-0.27820			484232.00000
-0.00732			-0.23864			484331.00000
-0.00732			-0.20795			484431.00000
-0.00732			-0.18289			484532.00000
-0.00732			-0.16021			484631.00000
-0.00732			-0.14451			484731.00000
-0.00732			-0.11605			484832.00000
-0.00732			-0.10452			484931.00000
4.74121			-14.70806			485829.00000
4.74121			-15.25432			485930.00000
4.74121			-15.33855			486031.00000
4.74121			-15.24563			486130.00000
4.74121			-15.16200			486230.00000
4.74121			-15.04419			486331.00000
4.74121			-14.99875			486430.00000
4.74121			-14.95820			486531.00000
4.74121			-14.92148			486630.00000
4.74121			-14.88946			486730.00000
-4.74121			12.18206			488652.00000
-4.74121			12.68332			488753.00000
-4.74121			12.79844			488852.00000
-4.74121			12.73581			488952.00000
-4.74121			12.62700			489053.00000
-4.74121			12.58874			489152.00000
-4.74121			12.55622			489252.00000
-4.74121			12.52774			489353.00000
-4.74121			12.50255			489452.00000
-4.74121			12.47968			489552.00000
-0.00732			0.25703			490696.00000
-0.00732			-0.14971			490798.00000
-0.00732			-0.26133			490897.00000
-0.00732			-0.22217			490997.00000
-0.00732			-0.19365			491098.00000
-0.00732			-0.17030			491197.00000
-0.00732			-0.14981			491297.00000
-0.00732			-0.13272			491398.00000
-0.00732			-0.11927			491497.00000
-0.00732			-0.10436			491596.00000
4.49219			-13.04618			492458.00000
4.49219			-13.96055			492560.00000
4.49219			-14.22341			492659.00000
4.49219			-14.13609			492760.00000
4.49219			-14.06719			492859.00000
4.49219			-14.01165			492959.00000
4.49219			-13.96643			493060.00000
4.49219			-13.92616			493159.00000
4.49219			-13.89138			493259.00000
4.49219			-13.82995			493360.00000
-4.49219			11.51080			495220.00000
-4.49219			11.90469			495321.00000
-4.49219			11.94353			495420.00000
-4.49219			11.87199			495520.00000
-4.49219			11.81840			495621.00000
-4.49219			11.77723			495720.00000
-4.49219			11.74227			495820.00000
-4.49219			11.68702			495921.00000
-4.49219			11.66212			496020.00000
-4.49219			11.64128			496120.00000
-0.00732			0.01978			497246.00000
-0.00732			-0.22539			497347.00000
-0.00732			-0.26204			497447.00000
-0.00732			-0.22625			497548.00000
-0.00732			-0.19126			497647.00000
-0.00732			-0.16527			497747.00000
-0.00732			-0.12845			497848.00000
-0.00732			-0.11449			497947.00000
-0.00732			-0.10052			498047.00000
-0.00732			-0.09037			498148.00000
4.24072			-12.71420			499009.00000
4.24072			-13.13476			499109.00000
4.24072			-13.17281			499210.00000
4.24072			-13.08969			499309.00000
4.24072			-13.02188			499409.00000
4.24072			-12.96909			499510.00000
4.24072			-12.88545			499609.00000
4.24072			-12.85275			499709.00000
4.24072			-12.82236			499810.00000
4.24072			-12.79438			499909.00000
-4.24072			10.60763			501752.00000
-4.24072			11.03326			501853.00000
-4.24072			11.12347			501952.00000
-4.24072			11.06295			502052.00000
-4.24072			11.00757			502153.00000
-4.24072			10.93343			502252.00000
-4.24072			10.90402			502352.00000
-4.24072			10.87856			502453.00000
-4.24072			10.85556			502552.00000
-4.24072			10.83605			502652.00000
-0.00732			0.05150			503753.00000
-0.00732			-0.20769			503855.00000
-0.00732			-0.24653			503954.00000
-0.00732			-0.21202			504054.00000
-0.00732			-0.17980			504155.00000
-0.00732			-0.15579			504254.00000
-0.00732			-0.13764			504354.00000
-0.00732			-0.10718			504455.00000
-0.00732			-0.09549			504554.00000
-0.00732			-0.08471			504654.00000
3.98926			-11.03418			505480.00000
3.98926			-11.87912			505581.00000
3.98926			-12.15070			505681.00000
3.98926			-12.07663			505782.00000
3.98926			-12.01746			505881.00000
3.98926			-11.97030			505981.00000
3.98926			-11.93122			506082.00000
3.98926			-11.89618			506181.00000
3.98926			-11.86587			506281.00000
3.98926			-11.81442			506382.00000
-3.99170			9.71287			508181.00000
-3.99170			10.21489			508281.00000
-3.99170			10.34489			508382.00000
-3.99170			10.29349			508481.00000
-3.99170			10.19858			508581.00000
-3.99170			10.16492			508682.00000
-3.99170			10.13742			508781.00000
-3.99170			10.11400			508881.00000
-3.99170			10.09246			508982.00000
-3.99170			10.07155			509081.00000
-0.00732			0.02249			510171.00000
-0.00732			-0.20242			510271.00000
-0.00732			-0.22813			510371.00000
-0.00732			-0.19322			510472.00000
-0.00732			-0.15881			510571.00000
-0.00732			-0.13807			510671.00000
-0.00732			-0.12317			510772.00000
-0.00732			-0.09474			510871.00000
-0.00732			-0.08416			510971.00000
-0.00732			-0.07383			511072.00000
3.74023			-10.41178			511884.00000
3.74023			-11.03848			511985.00000
3.74023			-11.20017			512085.00000
3.74023			-11.07844			512186.00000
3.74023			-11.02736			512285.00000
3.74023			-10.98634			512385.00000
3.74023			-10.95224			512486.00000
3.74023			-10.92187			512585.00000
3.74023			-10.89566			512686.00000
3.74023			-10.87173			512785.00000
-3.74268			8.75713			514548.00000
-3.74268			9.58508			514650.00000
-3.74268			9.57425			514749.00000
-3.74268			9.51594			514849.00000
-3.74268			9.47376			514950.00000
-3.74268			9.43938			515049.00000
-3.74268			9.41137			515149.00000
-3.74268			9.38888			515250.00000
-3.74268			9.36837			515349.00000
-3.74268			9.32911			515449.00000
-0.00732			0.12831			516527.00000
-0.00732			-0.15416			516627.00000
-0.00732			-0.21514			516727.00000
-0.00732			-0.18794			516828.00000
-0.00732			-0.15750			516927.00000
-0.00732			-0.11414			517027.00000
-0.00732			-0.09936			517128.00000
-0.00732			-0.08871			517227.00000
-0.00732			-0.07860			517327.00000
-0.00732			-0.06669			517428.00000
3.48877			-9.47736			518216.00000
3.48877			-10.09093			518317.00000
3.48877			-10.25728			518416.00000
3.48877			-10.21701			518516.00000
3.48877			-10.10946			518617.00000
3.48877			-10.07176			518716.00000
3.48877			-10.03900			518816.00000
3.48877			-10.01043			518917.00000
3.48877			-9.98615			519016.00000
3.48877			-9.96438			519116.00000
-3.49121			8.44099			520830.00000
-3.49121			8.79803			520932.00000
-3.49121			8.85853			521032.00000
-3.49121			8.80426			521131.00000
-3.49121			8.75779			521232.00000
-3.49121			8.72310			521331.00000
-3.49121			8.67080			521432.00000
-3.49121			8.64993			521531.00000
-3.49121			8.63035			521631.00000
-3.49121			8.61417			521732.00000
-0.00732			0.20728			522783.00000
-0.00732			-0.11575			522885.00000
-0.00732			-0.19603			522984.00000
-0.00732			-0.17540			523083.00000
-0.00732			-0.12058			523185.00000
-0.00732			-0.10248			523284.00000
-0.00732			-0.08599			523384.00000
-0.00732			-0.07192			523485.00000
-0.00732			-0.06423			523584.00000
-0.00732			-0.05666			523684.00000
3.24219			-8.70532			524448.00000
3.24219			-9.24549			524550.00000
3.24219			-9.36074			524649.00000
3.24219			-9.30242			524749.00000
3.24219			-9.24798			524850.00000
3.24219			-9.17099			524949.00000
3.24219			-9.14174			525049.00000
3.24219			-9.11748			525150.00000
3.24219			-9.09483			525249.00000
3.24219			-9.07475			525349.00000
-3.24219			7.54902			527015.00000
-3.24219			8.03408			527116.00000
-3.24219			8.16847			527215.00000
-3.24219			8.12868			527315.00000
-3.24219			8.04280			527416.00000
-3.24219			8.01440			527515.00000
-3.24219			7.99049			527615.00000
-3.24219			7.96893			527716.00000
-3.24219			7.95068			527815.00000
-3.24219			7.93429			527915.00000
-0.00732			0.26135			528936.00000
-0.00732			-0.08979			529038.00000
-0.00732			-0.17746			529137.00000
-0.00732			-0.15635			529237.00000
-0.00732			-0.12706			529338.00000
-0.00732			-0.08941			529437.00000
-0.00732			-0.07503			529537.00000
-0.00732			-0.06352			529638.00000
-0.00732			-0.05176			529737.00000
-0.00732			-0.04381			529838.00000
2.99072			-7.16545			530571.00000
2.99072			-8.45399			530672.00000
2.99072			-8.48802			530772.00000
2.99072			-8.43270			530873.00000
2.99072			-8.38691			530972.00000
2.99072			-8.35106			531072.00000
2.99072			-8.32153			531173.00000
2.99072			-8.29536			531272.00000
2.99072			-8.25175			531373.00000
2.99072			-8.23368			531472.00000
-2.99072			6.83989			533083.00000
-2.99072			7.34603			533184.00000
-2.99072			7.48422			533284.00000
-2.99072			7.44725			533385.00000
-2.99072			7.36875			533484.00000
-2.99072			7.34239			533584.00000
-2.99072			7.31999			533685.00000
-2.99072			7.29875			533784.00000
-2.99072			7.28176			533884.00000
-2.99072			7.26608			533985.00000
-0.00732			0.15910			534976.00000
-0.00732			-0.11553			535076.00000
-0.00732			-0.15939			535177.00000
-0.00732			-0.13106			535276.00000
-0.00732			-0.10660			535376.00000
-0.00732			-0.08830			535477.00000
-0.00732			-0.07398			535576.00000
-0.00732			-0.04764			535676.00000
-0.00732			-0.03829			535777.00000
-0.00732			-0.02951			535876.00000
2.73926			-6.96457			536592.00000
2.73926			-7.52138			536693.00000
2.73926			-7.65734			536794.00000
2.73926			-7.61192			536893.00000
2.73926			-7.52719			536993.00000
2.73926			-7.49811			537094.00000
2.73926			-7.47455			537193.00000
2.73926			-7.45254			537293.00000
2.73926			-7.43298			537394.00000
2.73926			-7.41629			537493.00000
-2.73926			6.25399			539062.00000
-2.73926			6.71147			539162.00000
-2.73926			6.83066			539262.00000
-2.73926			6.79158			539363.00000
-2.73926			6.71745			539462.00000
-2.73926			6.69312			539562.00000
-2.73926			6.67166			539663.00000
-2.73926			6.65228			539762.00000
-2.73926			6.63584			539862.00000
-2.73926			6.62272			539963.00000
-0.00732			0.59514			540928.00000
-0.00732			0.06434			541030.00000
-0.00732			-0.13450			541129.00000
-0.00732			-0.10834			541230.00000
-0.00732			-0.08456			541329.00000
-0.00732			-0.06664			541429.00000
-0.00732			-0.05347			541530.00000
-0.00732			-0.04261			541629.00000
-0.00732			-0.03185			541729.00000
-0.00732			-0.02464			541830.00000
2.49268			-5.79755			542526.00000
2.49268			-6.83303			542626.00000
2.49268			-6.84445			542727.00000
2.49268			-6.79709			542826.00000
2.49268			-6.76090			542926.00000
2.49268			-6.73184			543027.00000
2.49268			-6.70821			543126.00000
2.49268			-6.68710			543226.00000
2.49268			-6.65397			543327.00000
2.49268			-6.63939			543426.00000
-2.49023			5.69006			544952.00000
-2.49023			6.09999			545052.00000
-2.49023			6.19452			545152.00000
-2.49023			6.15825			545253.00000
-2.49023			6.09066			545352.00000
-2.49023			6.06771			545453.00000
-2.49023			6.04843			545552.00000
-2.49023			6.03036			545652.00000
-2.49023			6.01513			545753.00000
-2.49023			6.00234			545852.00000
-0.00732			0.42925			546801.00000
-0.00732			0.00472			546902.00000
-0.00732			-0.12101			547003.00000
-0.00732			-0.11002			547102.00000
-0.00732			-0.06551			547203.00000
-0.00732			-0.04937			547302.00000
-0.00732			-0.03693			547402.00000
-0.00732			-0.02665			547503.00000
-0.00732			-0.01931			547602.00000
-0.00732			-0.01217			547701.00000
2.24121			-5.51284			548357.00000
2.24121			-5.98071			548458.00000
2.24121			-6.07177			548558.00000
2.24121			-6.02844			548659.00000
2.24121			-5.98986			548758.00000
2.24121			-5.96075			548858.00000
2.24121			-5.91639			548959.00000
2.24121			-5.89821			549058.00000
2.24121			-5.88313			549158.00000
2.24121			-5.87024			549259.00000
-2.24365			4.65088			550704.00000
-2.24365			5.55604			550805.00000
-2.24365			5.56584			550905.00000
-2.24365			5.52211			551006.00000
-2.24365			5.49117			551105.00000
-2.24365			5.46673			551205.00000
-2.24365			5.44660			551306.00000
-2.24365			5.42951			551405.00000
-2.24365			5.40211			551505.00000
-2.24365			5.39063			551606.00000
-0.00732			0.51157			552517.00000
-0.00732			0.04350			552618.00000
-0.00732			-0.09828			552719.00000
-0.00732			-0.09064			552818.00000
-0.00732			-0.04764			552918.00000
-0.00732			-0.03245			553019.00000
-0.00732			-0.01986			553118.00000
-0.00732			-0.01164			553219.00000
-0.00732			-0.00418			553318.00000
-0.00732			0.00055			553418.00000
1.99219			-4.17865			554054.00000
1.99219			-5.28331			554155.00000
1.99219			-5.31262			554256.00000
1.99219			-5.27459			554355.00000
1.99219			-5.24282			554456.00000
1.99219			-5.21713			554555.00000
1.99219			-5.19793			554655.00000
1.99219			-5.18219			554756.00000
1.99219			-5.15097			554855.00000
1.99219			-5.13989			554955.00000
-1.99219			4.60269			556359.00000
-1.99219			4.91985			556459.00000
-1.99219			4.96285			556560.00000
-1.99219			4.92108			556659.00000
-1.99219			4.89039			556760.00000
-1.99219			4.86704			556859.00000
-1.99219			4.83140			556959.00000
-1.99219			4.81694			557060.00000
-1.99219			4.80435			557159.00000
-1.99219			4.79324			557259.00000
-0.00732			0.54643			558154.00000
-0.00732			0.07339			558255.00000
-0.00732			-0.07247			558354.00000
-0.00732			-0.04711			558454.00000
-0.00732			-0.03102			558555.00000
-0.00732			-0.01946			558654.00000
-0.00732			-0.00918			558754.00000
-0.00732			-0.00026			558855.00000
-0.00732			0.00844			558954.00000
-0.00732			0.01493			559054.00000
1.74072			-3.68100			559654.00000
1.74072			-4.34882			559756.00000
1.74072			-4.57244			559855.00000
1.74072			-4.52896			559955.00000
1.74072			-4.50264			560056.00000
1.74072			-4.48133			560155.00000
1.74072			-4.46469			560255.00000
1.74072			-4.45069			560356.00000
1.74072			-4.43767			560455.00000
1.74072			-4.42600			560555.00000
-1.74072			4.00340			561892.00000
-1.74072			4.32221			561992.00000
-1.74072			4.36592			562093.00000
-1.74072			4.32772			562192.00000
-1.74072			4.29859			562292.00000
-1.74072			4.27775			562393.00000
-1.74072			4.25975			562492.00000
-1.74072			4.23381			562592.00000
-1.74072			4.22124			562693.00000
-1.74072			4.21066			562792.00000
-0.00732			0.32130			563649.00000
-0.00732			-0.00001			563750.00000
-0.00732			-0.05427			563851.00000
-0.00732			-0.03354			563950.00000
-0.00732			-0.01597			564050.00000
-0.00732			-0.00327			564151.00000
-0.00732			0.00789			564250.00000
-0.00732			0.02390			564350.00000
-0.00732			0.02860			564451.00000
-0.00732			0.03483			564550.00000
1.49170			-2.91418			565113.00000
1.49170			-3.61301			565214.00000
1.49170			-3.85828			565313.00000
1.49170			-3.83058			565413.00000
1.49170			-3.80771			565514.00000
1.49170			-3.78848			565613.00000
1.49170			-3.77156			565713.00000
1.49170			-3.75887			565814.00000
1.49170			-3.74696			565913.00000
1.49170			-3.73733			566013.00000
-1.49170			3.23128			567282.00000
-1.49170			3.66913			567384.00000
-1.49170			3.77123			567483.00000
-1.49170			3.74144			567583.00000
-1.49170			3.71193			567684.00000
-1.49170			3.67476			567783.00000
-1.49170			3.66172			567883.00000
-1.49170			3.64998			567984.00000
-1.49170			3.63809			568083.00000
-1.49170			3.62740			568183.00000
-0.00732			0.31665			569011.00000
-0.00732			0.01761			569111.00000
-0.00732			-0.03105			569211.00000
-0.00732			-0.01109			569312.00000
-0.00732			0.00706			569411.00000
-0.00732			0.01912			569511.00000
-0.00732			0.02759			569612.00000
-0.00732			0.03400			569711.00000
-0.00732			0.04501			569811.00000
-0.00732			0.05140			569912.00000
1.24268			-2.57398			570449.00000
1.24268			-3.06258			570551.00000
1.24268			-3.17717			570650.00000
1.24268			-3.15410			570750.00000
1.24268			-3.12788			570851.00000
1.24268			-3.09609			570950.00000
1.24268			-3.08312			571050.00000
1.24268			-3.07384			571151.00000
1.24268			-3.06329			571250.00000
1.24268			-3.05484			571350.00000
-1.24268			2.73001			572553.00000
-1.24268			3.11058			572654.00000
-1.24268			3.18659			572754.00000
-1.24268			3.15869			572855.00000
-1.24268			3.13443			572954.00000
-1.24268			3.11696			573054.00000
-1.24268			3.09102			573155.00000
-1.24268			3.07997			573254.00000
-1.24268			3.07059			573354.00000
-1.24268			3.06239			573455.00000
-0.00732			0.70227			574238.00000
-0.00732			0.16584			574340.00000
-0.00732			0.00274			574439.00000
-0.00732			0.00274			574539.00000
-0.00732			0.01935			574640.00000
-0.00732			0.04014			574739.00000
-0.00732			0.04546			574839.00000
-0.00732			0.05434			574940.00000
-0.00732			0.06165			575039.00000
-0.00732			0.06613			575139.00000
0.98877			-1.88423			575635.00000
0.98877			-2.37547			575736.00000
0.98877			-2.49848			575837.00000
0.98877			-2.48236			575936.00000
0.98877			-2.46115			576036.00000
0.98877			-2.43456			576137.00000
0.98877			-2.42290			576236.00000
0.98877			-2.41289			576336.00000
0.98877			-2.40633			576437.00000
0.98877			-2.39939			576536.00000
-0.99121			1.96618			577678.00000
-0.99121			2.45501			577778.00000
-0.99121			2.59071			577878.00000
-0.99121			2.57400			577979.00000
-0.99121			2.53230			578078.00000
-0.99121			2.51980			578179.00000
-0.99121			2.50915			578278.00000
-0.99121			2.50018			578378.00000
-0.99121			2.49211			578479.00000
-0.99121			2.48457			578578.00000
-0.00732			0.63237			579332.00000
-0.00732			0.15417			579432.00000
-0.00732			0.03136			579532.00000
-0.00732			0.03486			579633.00000
-0.00732			0.04921			579732.00000
-0.00732			0.06791			579832.00000
-0.00732			0.07555			579933.00000
-0.00732			0.07887			580032.00000
-0.00732			0.08106			580132.00000
-0.00732			0.08299			580233.00000
0.74219			-0.87790			580685.00000
0.74219			-1.55586			580787.00000
0.74219			-1.83006			580886.00000
0.74219			-1.80633			580986.00000
0.74219			-1.79181			581087.00000
0.74219			-1.78220			581186.00000
0.74219			-1.77368			581286.00000
0.74219			-1.76675			581387.00000
0.74219			-1.76001			581486.00000
0.74219			-1.75460			581586.00000
-0.74219			1.12187			582624.00000
-0.74219			1.74927			582725.00000
-0.74219			2.00114			582825.00000
-0.74219			1.97691			582926.00000
-0.74219			1.96203			583025.00000
-0.74219			1.95130			583125.00000
-0.74219			1.94266			583226.00000
-0.74219			1.93461			583325.00000
-0.74219			1.92833			583425.00000
-0.74219			1.91624			583526.00000
-0.00732			0.53844			584230.00000
-0.00732			0.13836			584331.00000
-0.00732			0.05959			584430.00000
-0.00732			0.06992			584530.00000
-0.00732			0.08239			584631.00000
-0.00732			0.08983			584730.00000
-0.00732			0.09307			584830.00000
-0.00732			0.09782			584931.00000
-0.00732			0.10687			585030.00000
-0.00732			0.10795			585130.00000
0.49072			-0.24552			585529.00000
0.49072			-0.83567			585630.00000
0.49072			-1.18085			585731.00000
0.49072			-1.16516			585830.00000
0.49072			-1.15451			585930.00000
0.49072			-1.14631			586031.00000
0.49072			-1.13932			586130.00000
0.49072			-1.13279			586230.00000
0.49072			-1.12693			586331.00000
0.49072			-1.12010			586430.00000
-0.49072			0.64994			587358.00000
-0.49072			1.18262			587459.00000
-0.49072			1.39142			587559.00000
-0.49072			1.37646			587660.00000
-0.49072			1.36493			587759.00000
-0.49072			1.35693			587859.00000
-0.49072			1.35120			587960.00000
-0.49072			1.34497			588059.00000
-0.49072			1.33969			588159.00000
-0.49072			1.33519			588260.00000
-0.00732			0.73690			588915.00000
-0.00732			0.25348			589016.00000
-0.00732			0.10687			589115.00000
-0.00732			0.10317			589215.00000
-0.00732			0.11197			589316.00000
-0.00732			0.11662			589415.00000
-0.00732			0.12622			589515.00000
-0.00732			0.12901			589616.00000
-0.00732			0.13067			589715.00000
-0.00732			0.13211			589815.00000
0.23926			-0.02014			590147.00000
0.23926			-0.36059			590248.00000
0.23926			-0.51590			590349.00000
0.23926			-0.51517			590448.00000
0.23926			-0.50610			590548.00000
0.23926			-0.49645			590649.00000
0.23926			-0.49285			590748.00000
0.23926			-0.48911			590848.00000
0.23926			-0.48690			590949.00000
0.23926			-0.48531			591048.00000
-0.24170			0.20294			591842.00000
-0.24170			0.52896			591942.00000
-0.24170			0.74867			592042.00000
-0.24170			0.76121			592143.00000
-0.24170			0.74160			592242.00000
-0.24170			0.73605			592342.00000
-0.24170			0.73223			592443.00000
-0.24170			0.72956			592542.00000
-0.24170			0.72745			592643.00000
-0.24170			0.72466			592742.00000
-0.00732			0.63056			593325.00000
-0.00732			0.35334			593426.00000
-0.00732			0.16164			593526.00000
-0.00732			0.13954			593627.00000
-0.00732			0.14533			593726.00000
-0.00732			0.14972			593826.00000
-0.00732			0.15171			593927.00000
-0.00732			0.15425			594026.00000
-0.00732			0.15596			594126.00000
-0.00732			0.15634			594226.00000
