# Acquired on 01/02/2024 11:08:44 
# SPIDER: Tracking_HM077x145x38AB-1
# STATIC MEASUREMENT

# pos [mm]		 force [N]		 time [ms]
0.25000			-0.05469			230.00000
0.25000			-0.33432			331.00000
0.25000			-0.60779			430.00000
0.25000			-0.64926			530.00000
0.25000			-0.64669			631.00000
0.25000			-0.64468			730.00000
0.25000			-0.64300			830.00000
0.25000			-0.64257			931.00000
0.25000			-0.64109			1030.00000
0.25000			-0.64059			1130.00000
-0.25000			-0.02900			1918.00000
-0.25000			0.57313			2019.00000
-0.25000			0.65183			2119.00000
-0.25000			0.64766			2220.00000
-0.25000			0.64371			2319.00000
-0.25000			0.64052			2419.00000
-0.25000			0.63813			2520.00000
-0.25000			0.63612			2619.00000
-0.25000			0.63617			2720.00000
-0.25000			0.63461			2819.00000
-0.00244			0.58749			3396.00000
-0.00244			0.36197			3497.00000
-0.00244			0.09130			3596.00000
-0.00244			0.02011			3696.00000
-0.00244			0.02140			3797.00000
-0.00244			0.02170			3896.00000
-0.00244			0.02300			3996.00000
-0.00244			0.02406			4097.00000
-0.00244			0.02381			4196.00000
-0.00244			0.02240			4296.00000
0.50000			-0.55719			4683.00000
0.50000			-1.12026			4784.00000
0.50000			-1.31984			4884.00000
0.50000			-1.32182			4985.00000
0.50000			-1.31232			5084.00000
0.50000			-1.30473			5184.00000
0.50000			-1.30232			5285.00000
0.50000			-1.29980			5384.00000
0.50000			-1.29842			5484.00000
0.50000			-1.29651			5585.00000
-0.50000			0.77620			6505.00000
-0.50000			1.21249			6606.00000
-0.50000			1.31535			6705.00000
-0.50000			1.30537			6805.00000
-0.50000			1.29848			6906.00000
-0.50000			1.29486			7005.00000
-0.50000			1.29174			7105.00000
-0.50000			1.28652			7206.00000
-0.50000			1.28410			7305.00000
-0.50000			1.28207			7405.00000
-0.00244			0.93490			8049.00000
-0.00244			0.35064			8151.00000
-0.00244			0.03992			8250.00000
-0.00244			-0.00889			8349.00000
-0.00244			-0.00656			8451.00000
-0.00244			-0.00522			8550.00000
-0.00244			-0.00283			8651.00000
-0.00244			-0.00113			8750.00000
-0.00244			-0.00082			8850.00000
-0.00244			-0.00077			8951.00000
0.75000			-0.74829			9391.00000
0.75000			-1.91038			9492.00000
0.75000			-1.98116			9593.00000
0.75000			-1.97046			9692.00000
0.75000			-1.96271			9792.00000
0.75000			-1.95731			9893.00000
0.75000			-1.95326			9992.00000
0.75000			-1.95025			10092.00000
0.75000			-1.94708			10193.00000
0.75000			-1.94323			10292.00000
-0.75000			0.83994			11323.00000
-0.75000			1.92406			11425.00000
-0.75000			1.98263			11524.00000
-0.75000			1.97202			11624.00000
-0.75000			1.96554			11724.00000
-0.75000			1.95966			11824.00000
-0.75000			1.95420			11924.00000
-0.75000			1.95131			12025.00000
-0.75000			1.94819			12124.00000
-0.75000			1.94209			12224.00000
-0.00244			0.58849			12924.00000
-0.00244			0.10547			13025.00000
-0.00244			-0.01699			13125.00000
-0.00244			-0.02209			13226.00000
-0.00244			-0.01772			13325.00000
-0.00244			-0.01462			13425.00000
-0.00244			-0.01369			13526.00000
-0.00244			-0.00884			13625.00000
-0.00244			-0.00711			13725.00000
-0.00244			-0.00550			13826.00000
1.00000			-1.40565			14321.00000
1.00000			-2.55794			14422.00000
1.00000			-2.61331			14521.00000
1.00000			-2.59544			14621.00000
1.00000			-2.58624			14722.00000
1.00000			-2.58101			14821.00000
1.00000			-2.57616			14922.00000
1.00000			-2.57156			15021.00000
1.00000			-2.56447			15121.00000
1.00000			-2.56012			15222.00000
-1.00000			1.44090			16344.00000
-1.00000			2.57295			16444.00000
-1.00000			2.63355			16545.00000
-1.00000			2.61993			16644.00000
-1.00000			2.61000			16744.00000
-1.00000			2.60286			16845.00000
-1.00000			2.59751			16944.00000
-1.00000			2.59349			17044.00000
-1.00000			2.58466			17145.00000
-1.00000			2.58122			17244.00000
-0.00244			1.03160			17992.00000
-0.00244			0.30150			18093.00000
-0.00244			0.01574			18192.00000
-0.00244			-0.02862			18293.00000
-0.00244			-0.02390			18392.00000
-0.00244			-0.02063			18492.00000
-0.00244			-0.01761			18593.00000
-0.00244			-0.01631			18691.00000
-0.00244			-0.01487			18792.00000
-0.00244			-0.01264			18893.00000
1.25000			-2.82411			19424.00000
1.25000			-3.19880			19525.00000
1.25000			-3.27134			19626.00000
1.25000			-3.25777			19725.00000
1.25000			-3.24658			19825.00000
1.25000			-3.23862			19926.00000
1.25000			-3.23213			20025.00000
1.25000			-3.22625			20125.00000
1.25000			-3.21745			20226.00000
1.25000			-3.21275			20325.00000
-1.25000			2.84672			21533.00000
-1.25000			3.21530			21634.00000
-1.25000			3.28935			21733.00000
-1.25000			3.27676			21834.00000
-1.25000			3.26540			21933.00000
-1.25000			3.25760			22033.00000
-1.25000			3.25212			22134.00000
-1.25000			3.24604			22233.00000
-1.25000			3.23629			22333.00000
-1.25000			3.23186			22434.00000
-0.00244			0.56029			23211.00000
-0.00244			0.09016			23312.00000
-0.00244			-0.03516			23413.00000
-0.00244			-0.03938			23512.00000
-0.00244			-0.03345			23612.00000
-0.00244			-0.02875			23713.00000
-0.00244			-0.02453			23812.00000
-0.00244			-0.01915			23912.00000
-0.00244			-0.01573			24013.00000
-0.00244			-0.01558			24112.00000
1.50000			-2.87328			24675.00000
1.50000			-3.59576			24776.00000
1.50000			-3.90874			24877.00000
1.50000			-3.88883			24976.00000
1.50000			-3.87737			25077.00000
1.50000			-3.86845			25176.00000
1.50000			-3.86222			25276.00000
1.50000			-3.85641			25376.00000
1.50000			-3.85023			25476.00000
1.50000			-3.84532			25576.00000
-1.50000			3.24599			26840.00000
-1.50000			3.77782			26940.00000
-1.50000			3.93959			27041.00000
-1.50000			3.93658			27140.00000
-1.50000			3.91989			27240.00000
-1.50000			3.90222			27341.00000
-1.50000			3.89596			27440.00000
-1.50000			3.88962			27540.00000
-1.50000			3.88377			27641.00000
-1.50000			3.87839			27740.00000
-0.00244			1.18736			28561.00000
-0.00244			0.02896			28662.00000
-0.00244			-0.05044			28761.00000
-0.00244			-0.04677			28861.00000
-0.00244			-0.03933			28962.00000
-0.00244			-0.03405			29061.00000
-0.00244			-0.03126			29161.00000
-0.00244			-0.02865			29262.00000
-0.00244			-0.02274			29361.00000
-0.00244			-0.02035			29461.00000
1.75000			-3.30565			30055.00000
1.75000			-4.49818			30156.00000
1.75000			-4.56632			30255.00000
1.75000			-4.54943			30355.00000
1.75000			-4.53508			30456.00000
1.75000			-4.52523			30555.00000
1.75000			-4.51781			30655.00000
1.75000			-4.50957			30756.00000
1.75000			-4.49708			30855.00000
1.75000			-4.49220			30955.00000
-1.75000			3.86321			32293.00000
-1.75000			4.41766			32393.00000
-1.75000			4.59325			32493.00000
-1.75000			4.59290			32594.00000
-1.75000			4.57631			32693.00000
-1.75000			4.55711			32793.00000
-1.75000			4.54816			32894.00000
-1.75000			4.54100			32993.00000
-1.75000			4.53519			33093.00000
-1.75000			4.53109			33194.00000
-0.00244			0.62582			34045.00000
-0.00244			0.11341			34145.00000
-0.00244			-0.04629			34245.00000
-0.00244			-0.05743			34346.00000
-0.00244			-0.05001			34445.00000
-0.00244			-0.03687			34545.00000
-0.00244			-0.03383			34646.00000
-0.00244			-0.03131			34745.00000
-0.00244			-0.02892			34845.00000
-0.00244			-0.02603			34946.00000
2.00000			-4.27104			35581.00000
2.00000			-4.94177			35682.00000
2.00000			-5.21428			35782.00000
2.00000			-5.19038			35883.00000
2.00000			-5.17715			35982.00000
2.00000			-5.16655			36082.00000
2.00000			-5.15825			36183.00000
2.00000			-5.15076			36282.00000
2.00000			-5.14365			36382.00000
2.00000			-5.13171			36483.00000
-2.00000			4.84320			37892.00000
-2.00000			5.19292			37992.00000
-2.00000			5.26147			38093.00000
-2.00000			5.24103			38192.00000
-2.00000			5.22502			38292.00000
-2.00000			5.21371			38393.00000
-2.00000			5.20449			38492.00000
-2.00000			5.18817			38592.00000
-2.00000			5.18053			38693.00000
-2.00000			5.17430			38792.00000
-0.00244			0.61858			39680.00000
-0.00244			0.11090			39780.00000
-0.00244			-0.05293			39882.00000
-0.00244			-0.06721			39981.00000
-0.00244			-0.05195			40081.00000
-0.00244			-0.04607			40182.00000
-0.00244			-0.04232			40281.00000
-0.00244			-0.03903			40381.00000
-0.00244			-0.03566			40482.00000
-0.00244			-0.03315			40580.00000
2.25000			-5.37275			41229.00000
2.25000			-5.78447			41330.00000
2.25000			-5.87616			41431.00000
2.25000			-5.85751			41530.00000
2.25000			-5.84074			41630.00000
2.25000			-5.82868			41731.00000
2.25000			-5.81757			41830.00000
2.25000			-5.80020			41931.00000
2.25000			-5.79364			42030.00000
2.25000			-5.78721			42130.00000
-2.25000			4.94419			43570.00000
-2.25000			5.62462			43671.00000
-2.25000			5.89037			43772.00000
-2.25000			5.89902			43871.00000
-2.25000			5.88462			43971.00000
-2.25000			5.87323			44072.00000
-2.25000			5.86224			44171.00000
-2.25000			5.85229			44271.00000
-2.25000			5.84495			44372.00000
-2.25000			5.83822			44471.00000
-0.00244			0.53063			45390.00000
-0.00244			0.07046			45490.00000
-0.00244			-0.06814			45590.00000
-0.00244			-0.07716			45691.00000
-0.00244			-0.06773			45790.00000
-0.00244			-0.05361			45890.00000
-0.00244			-0.04798			45991.00000
-0.00244			-0.04323			46090.00000
-0.00244			-0.04069			46190.00000
-0.00244			-0.03835			46291.00000
2.50000			-5.85407			46981.00000
2.50000			-6.36866			47082.00000
2.50000			-6.52474			47183.00000
2.50000			-6.51537			47282.00000
2.50000			-6.47849			47382.00000
2.50000			-6.46623			47483.00000
2.50000			-6.45507			47582.00000
2.50000			-6.44597			47682.00000
2.50000			-6.43878			47783.00000
2.50000			-6.43177			47882.00000
-2.50000			5.51563			49394.00000
-2.50000			6.53999			49496.00000
-2.50000			6.58646			49595.00000
-2.50000			6.56112			49696.00000
-2.50000			6.54275			49795.00000
-2.50000			6.52925			49895.00000
-2.50000			6.51777			49996.00000
-2.50000			6.50899			50095.00000
-2.50000			6.49183			50195.00000
-2.50000			6.48537			50296.00000
-0.00244			0.96810			51238.00000
-0.00244			-0.02573			51339.00000
-0.00244			-0.08704			51439.00000
-0.00244			-0.07967			51540.00000
-0.00244			-0.07130			51639.00000
-0.00244			-0.06467			51739.00000
-0.00244			-0.05773			51840.00000
-0.00244			-0.05185			51939.00000
-0.00244			-0.04494			52039.00000
-0.00244			-0.04107			52140.00000
2.75000			-6.64961			52842.00000
2.75000			-7.08201			52944.00000
2.75000			-7.19271			53043.00000
2.75000			-7.17617			53143.00000
2.75000			-7.15631			53244.00000
2.75000			-7.14153			53343.00000
2.75000			-7.11692			53443.00000
2.75000			-7.10675			53544.00000
2.75000			-7.09898			53643.00000
2.75000			-7.09108			53743.00000
-2.75000			6.74969			55299.00000
-2.75000			7.15841			55400.00000
-2.75000			7.25686			55501.00000
-2.75000			7.23984			55600.00000
-2.75000			7.22019			55700.00000
-2.75000			7.20360			55801.00000
-2.75000			7.19133			55900.00000
-2.75000			7.16982			56000.00000
-2.75000			7.16077			56101.00000
-2.75000			7.15383			56200.00000
-0.00244			0.50803			57162.00000
-0.00244			0.05123			57261.00000
-0.00244			-0.08862			57361.00000
-0.00244			-0.09126			57462.00000
-0.00244			-0.08075			57561.00000
-0.00244			-0.06761			57661.00000
-0.00244			-0.06241			57762.00000
-0.00244			-0.05788			57861.00000
-0.00244			-0.05464			57961.00000
-0.00244			-0.04969			58062.00000
3.00000			-6.78469			58789.00000
3.00000			-7.51197			58889.00000
3.00000			-7.83943			58989.00000
3.00000			-7.80987			59090.00000
3.00000			-7.79140			59189.00000
3.00000			-7.77785			59289.00000
3.00000			-7.76503			59390.00000
3.00000			-7.75327			59489.00000
3.00000			-7.74314			59589.00000
3.00000			-7.72758			59690.00000
-3.00000			7.38405			61282.00000
-3.00000			7.82061			61382.00000
-3.00000			7.92824			61483.00000
-3.00000			7.90705			61582.00000
-3.00000			7.88594			61682.00000
-3.00000			7.86990			61783.00000
-3.00000			7.84354			61882.00000
-3.00000			7.83313			61982.00000
-3.00000			7.82401			62083.00000
-3.00000			7.81438			62182.00000
-0.00244			0.74523			63174.00000
-0.00244			0.15594			63275.00000
-0.00244			-0.07324			63374.00000
-0.00244			-0.09458			63474.00000
-0.00244			-0.08515			63575.00000
-0.00244			-0.07749			63674.00000
-0.00244			-0.07085			63773.00000
-0.00244			-0.06605			63875.00000
-0.00244			-0.06258			63974.00000
-0.00244			-0.05886			64075.00000
3.25000			-7.75525			64832.00000
3.25000			-8.31579			64933.00000
3.25000			-8.50470			65032.00000
3.25000			-8.48140			65132.00000
3.25000			-8.46398			65233.00000
3.25000			-8.44797			65332.00000
3.25000			-8.43518			65432.00000
3.25000			-8.42392			65533.00000
3.25000			-8.41329			65632.00000
3.25000			-8.40351			65732.00000
-3.25000			7.73030			67392.00000
-3.25000			8.35350			67494.00000
-3.25000			8.59721			67593.00000
-3.25000			8.56971			67693.00000
-3.25000			8.55069			67794.00000
-3.25000			8.53598			67893.00000
-3.25000			8.52181			67993.00000
-3.25000			8.50936			68094.00000
-3.25000			8.49851			68193.00000
-3.25000			8.48913			68293.00000
-0.00244			0.55662			69315.00000
-0.00244			0.07207			69416.00000
-0.00244			-0.09935			69515.00000
-0.00244			-0.10511			69615.00000
-0.00244			-0.09385			69716.00000
-0.00244			-0.08528			69815.00000
-0.00244			-0.07940			69915.00000
-0.00244			-0.07447			70016.00000
-0.00244			-0.06977			70115.00000
-0.00244			-0.06575			70215.00000
3.50000			-8.32084			70999.00000
3.50000			-8.92886			71099.00000
3.50000			-9.16558			71200.00000
3.50000			-9.13642			71299.00000
3.50000			-9.11659			71399.00000
3.50000			-9.10020			71500.00000
3.50000			-9.08565			71599.00000
3.50000			-9.07265			71699.00000
3.50000			-9.06202			71800.00000
3.50000			-9.05212			71899.00000
-3.50000			8.71836			73602.00000
-3.50000			9.16076			73702.00000
-3.50000			9.28468			73803.00000
-3.50000			9.26744			73902.00000
-3.50000			9.24200			74002.00000
-3.50000			9.20827			74103.00000
-3.50000			9.19364			74202.00000
-3.50000			9.18168			74302.00000
-3.50000			9.17082			74403.00000
-3.50000			9.16001			74502.00000
-0.00244			0.43808			75536.00000
-0.00244			0.01127			75638.00000
-0.00244			-0.11951			75737.00000
-0.00244			-0.12225			75837.00000
-0.00244			-0.10893			75938.00000
-0.00244			-0.09020			76037.00000
-0.00244			-0.08359			76137.00000
-0.00244			-0.07814			76238.00000
-0.00244			-0.07279			76337.00000
-0.00244			-0.06753			76437.00000
3.75000			-8.95937			77250.00000
3.75000			-9.81806			77351.00000
3.75000			-9.84777			77450.00000
3.75000			-9.82050			77550.00000
3.75000			-9.79921			77651.00000
3.75000			-9.78149			77750.00000
3.75000			-9.76575			77850.00000
3.75000			-9.75190			77951.00000
3.75000			-9.73944			78050.00000
3.75000			-9.72039			78150.00000
-3.75000			9.57914			79908.00000
-3.75000			9.90881			80008.00000
-3.75000			9.97144			80108.00000
-3.75000			9.94595			80209.00000
-3.75000			9.92240			80308.00000
-3.75000			9.90360			80408.00000
-3.75000			9.88616			80509.00000
-3.75000			9.86186			80608.00000
-3.75000			9.84871			80708.00000
-3.75000			9.83750			80809.00000
-0.00244			0.44593			81879.00000
-0.00244			0.01747			81980.00000
-0.00244			-0.12778			82080.00000
-0.00244			-0.13708			82180.00000
-0.00244			-0.11275			82280.00000
-0.00244			-0.10348			82381.00000
-0.00244			-0.09677			82480.00000
-0.00244			-0.09043			82580.00000
-0.00244			-0.08530			82681.00000
-0.00244			-0.07982			82780.00000
4.00000			-10.08645			83599.00000
4.00000			-10.45335			83699.00000
4.00000			-10.52453			83800.00000
4.00000			-10.49401			83899.00000
4.00000			-10.46790			84000.00000
4.00000			-10.44789			84099.00000
4.00000			-10.43103			84199.00000
4.00000			-10.40436			84300.00000
4.00000			-10.39255			84399.00000
4.00000			-10.38156			84499.00000
-4.00000			9.85306			86281.00000
-4.00000			10.43699			86382.00000
-4.00000			10.64564			86483.00000
-4.00000			10.61729			86582.00000
-4.00000			10.59487			86682.00000
-4.00000			10.57629			86783.00000
-4.00000			10.56068			86882.00000
-4.00000			10.54666			86982.00000
-4.00000			10.53457			87083.00000
-4.00000			10.52155			87182.00000
-0.00244			0.27657			88272.00000
-0.00244			-0.05791			88372.00000
-0.00244			-0.14965			88472.00000
-0.00244			-0.14452			88573.00000
-0.00244			-0.13278			88672.00000
-0.00244			-0.12255			88772.00000
-0.00244			-0.10222			88873.00000
-0.00244			-0.09521			88972.00000
-0.00244			-0.09113			89072.00000
-0.00244			-0.08593			89173.00000
4.25000			-10.78500			90022.00000
4.25000			-11.13250			90122.00000
4.25000			-11.21021			90222.00000
4.25000			-11.18556			90323.00000
4.25000			-11.15896			90422.00000
4.25000			-11.13913			90522.00000
4.25000			-11.10512			90623.00000
4.25000			-11.09175			90722.00000
4.25000			-11.07946			90822.00000
4.25000			-11.06830			90923.00000
-4.25000			10.84006			92759.00000
-4.25000			11.23898			92859.00000
-4.25000			11.34150			92960.00000
-4.25000			11.32044			93059.00000
-4.25000			11.29264			93159.00000
-4.25000			11.27150			93260.00000
-4.25000			11.23674			93359.00000
-4.25000			11.22241			93459.00000
-4.25000			11.20952			93560.00000
-4.25000			11.19740			93659.00000
-0.00244			0.20571			94761.00000
-0.00244			-0.09440			94862.00000
-0.00244			-0.16400			94962.00000
-0.00244			-0.15415			95062.00000
-0.00244			-0.13897			95162.00000
-0.00244			-0.12783			95262.00000
-0.00244			-0.11876			95363.00000
-0.00244			-0.10554			95462.00000
-0.00244			-0.09908			95563.00000
-0.00244			-0.09312			95662.00000
4.50000			-11.47461			96518.00000
4.50000			-11.83361			96619.00000
4.50000			-11.89509			96720.00000
4.50000			-11.85927			96819.00000
4.50000			-11.83235			96919.00000
4.50000			-11.81134			97020.00000
4.50000			-11.79241			97119.00000
4.50000			-11.76110			97219.00000
4.50000			-11.74873			97320.00000
4.50000			-11.73616			97419.00000
-4.50000			11.34987			99280.00000
-4.50000			11.87999			99381.00000
-4.50000			12.03789			99481.00000
-4.50000			12.01959			99582.00000
-4.50000			11.96307			99681.00000
-4.50000			11.94278			99781.00000
-4.50000			11.92577			99882.00000
-4.50000			11.91101			99981.00000
-4.50000			11.89789			100081.00000
-4.50000			11.88447			100182.00000
-0.00244			0.39271			101306.00000
-0.00244			-0.02867			101406.00000
-0.00244			-0.16639			101507.00000
-0.00244			-0.17252			101607.00000
-0.00244			-0.14319			101708.00000
-0.00244			-0.13185			101807.00000
-0.00244			-0.12381			101907.00000
-0.00244			-0.11750			102008.00000
-0.00244			-0.11157			102107.00000
-0.00244			-0.10554			102207.00000
4.75000			-11.68102			103093.00000
4.75000			-12.31314			103193.00000
4.75000			-12.57746			103295.00000
4.75000			-12.54290			103394.00000
4.75000			-12.51678			103494.00000
4.75000			-12.49617			103595.00000
4.75000			-12.47777			103694.00000
4.75000			-12.46033			103794.00000
4.75000			-12.44595			103895.00000
4.75000			-12.41938			103994.00000
-4.75000			11.79843			105916.00000
-4.75000			12.69648			106017.00000
-4.75000			12.72410			106116.00000
-4.75000			12.69113			106216.00000
-4.75000			12.66363			106317.00000
-4.75000			12.64166			106416.00000
-4.75000			12.62399			106516.00000
-4.75000			12.60806			106617.00000
-4.75000			12.57794			106716.00000
-4.75000			12.56430			106816.00000
-0.00244			0.19820			107966.00000
-0.00244			-0.10981			108067.00000
-0.00244			-0.18715			108166.00000
-0.00244			-0.17838			108266.00000
-0.00244			-0.16372			108366.00000
-0.00244			-0.15055			108466.00000
-0.00244			-0.13158			108566.00000
-0.00244			-0.12429			108667.00000
-0.00244			-0.11667			108766.00000
-0.00244			-0.11041			108866.00000
5.00000			-12.42059			109765.00000
5.00000			-13.03544			109866.00000
5.00000			-13.25897			109965.00000
5.00000			-13.21946			110065.00000
5.00000			-13.19218			110166.00000
5.00000			-13.17042			110265.00000
5.00000			-13.15126			110365.00000
5.00000			-13.13347			110466.00000
5.00000			-13.11834			110565.00000
5.00000			-13.10489			110666.00000
-5.00000			13.01637			112611.00000
-5.00000			13.36173			112712.00000
-5.00000			13.42479			112813.00000
-5.00000			13.38453			112912.00000
-5.00000			13.35321			113013.00000
-5.00000			13.33041			113112.00000
-5.00000			13.31048			113212.00000
-5.00000			13.27685			113313.00000
-5.00000			13.26134			113412.00000
-5.00000			13.24739			113512.00000
-0.00244			0.39261			114681.00000
-0.00244			-0.03405			114781.00000
-0.00244			-0.18506			114881.00000
-0.00244			-0.17883			114982.00000
-0.00244			-0.16337			115081.00000
-0.00244			-0.15239			115181.00000
-0.00244			-0.14233			115282.00000
-0.00244			-0.13457			115381.00000
-0.00244			-0.12773			115481.00000
-0.00244			-0.12137			115582.00000
5.25000			-13.40822			116504.00000
5.25000			-13.84150			116605.00000
5.25000			-13.96260			116704.00000
5.25000			-13.94013			116804.00000
5.25000			-13.90569			116905.00000
5.25000			-13.85899			117004.00000
5.25000			-13.83893			117104.00000
5.25000			-13.82187			117205.00000
5.25000			-13.80744			117304.00000
5.25000			-13.79314			117404.00000
-5.25000			13.69042			119388.00000
-5.25000			14.04927			119488.00000
-5.25000			14.12842			119589.00000
-5.25000			14.09803			119688.00000
-5.25000			14.06611			119788.00000
-5.25000			14.04088			119889.00000
-5.25000			14.00187			119988.00000
-5.25000			13.98467			120088.00000
-5.25000			13.96899			120189.00000
-5.25000			13.95454			120288.00000
-0.00244			0.57452			121469.00000
-0.00244			-0.17702			121570.00000
-0.00244			-0.21017			121670.00000
-0.00244			-0.19421			121771.00000
-0.00244			-0.17880			121870.00000
-0.00244			-0.16488			121970.00000
-0.00244			-0.15503			122071.00000
-0.00244			-0.14621			122170.00000
-0.00244			-0.13665			122270.00000
-0.00244			-0.12356			122371.00000
5.50000			-13.77956			123311.00000
5.50000			-14.39293			123412.00000
5.50000			-14.63526			123513.00000
5.50000			-14.59283			123612.00000
5.50000			-14.56388			123712.00000
5.50000			-14.54002			123813.00000
5.50000			-14.51878			123912.00000
5.50000			-14.50096			124012.00000
5.50000			-14.48400			124113.00000
5.50000			-14.45602			124212.00000
-5.50000			14.46249			126231.00000
-5.50000			14.77072			126332.00000
-5.50000			14.82414			126431.00000
-5.50000			14.78040			126531.00000
-5.50000			14.74695			126632.00000
-5.50000			14.72216			126731.00000
-5.50000			14.70140			126831.00000
-5.50000			14.66377			126932.00000
-5.50000			14.64887			127031.00000
-5.50000			14.63477			127131.00000
-0.00244			0.60164			128331.00000
-0.00244			-0.18107			128432.00000
-0.00244			-0.22345			128532.00000
-0.00244			-0.20718			128633.00000
-0.00244			-0.18939			128732.00000
-0.00244			-0.17569			128832.00000
-0.00244			-0.16438			128933.00000
-0.00244			-0.15643			129032.00000
-0.00244			-0.13841			129132.00000
-0.00244			-0.13366			129233.00000
5.75000			-14.95008			130203.00000
5.75000			-15.27796			130304.00000
5.75000			-15.35058			130403.00000
5.75000			-15.31607			130503.00000
5.75000			-15.28196			130604.00000
5.75000			-15.25647			130703.00000
5.75000			-15.21186			130803.00000
5.75000			-15.19527			130904.00000
5.75000			-15.17951			131003.00000
5.75000			-15.16438			131104.00000
-5.75000			15.18223			133182.00000
-5.75000			15.48162			133284.00000
-5.75000			15.53784			133383.00000
-5.75000			15.50220			133483.00000
-5.75000			15.46990			133584.00000
-5.75000			15.44396			133683.00000
-5.75000			15.39955			133783.00000
-5.75000			15.38211			133884.00000
-5.75000			15.36599			133983.00000
-5.75000			15.35134			134083.00000
-0.00244			0.16165			135307.00000
-0.00244			-0.14653			135407.00000
-0.00244			-0.23599			135508.00000
-0.00244			-0.22857			135607.00000
-0.00244			-0.20914			135707.00000
-0.00244			-0.18132			135808.00000
-0.00244			-0.17197			135907.00000
-0.00244			-0.16290			136007.00000
-0.00244			-0.15490			136108.00000
-0.00244			-0.14739			136207.00000
6.00000			-15.33668			137179.00000
6.00000			-15.86798			137280.00000
6.00000			-16.03865			137381.00000
6.00000			-15.97380			137480.00000
6.00000			-15.94371			137580.00000
6.00000			-15.91828			137681.00000
6.00000			-15.89711			137780.00000
6.00000			-15.87874			137880.00000
6.00000			-15.86107			137981.00000
6.00000			-15.84491			138080.00000
-6.00000			15.42408			140179.00000
-6.00000			16.02219			140280.00000
-6.00000			16.23612			140379.00000
-6.00000			16.18927			140479.00000
-6.00000			16.15788			140580.00000
-6.00000			16.13181			140679.00000
-6.00000			16.10946			140779.00000
-6.00000			16.08946			140880.00000
-6.00000			16.07038			140979.00000
-6.00000			16.03969			141079.00000
-0.00244			0.04472			142321.00000
-0.00244			-0.19416			142423.00000
-0.00244			-0.24730			142522.00000
-0.00244			-0.23312			142622.00000
-0.00244			-0.21334			142722.00000
-0.00244			-0.19801			142822.00000
-0.00244			-0.18610			142923.00000
-0.00244			-0.16677			143022.00000
-0.00244			-0.15829			143122.00000
-0.00244			-0.15153			143223.00000
6.25000			-16.05393			144212.00000
6.25000			-16.58322			144313.00000
6.25000			-16.75635			144413.00000
6.25000			-16.69967			144514.00000
6.25000			-16.66914			144613.00000
6.25000			-16.64335			144714.00000
6.25000			-16.62100			144813.00000
6.25000			-16.60039			144913.00000
6.25000			-16.58169			145014.00000
6.25000			-16.56513			145113.00000
-6.25000			16.52593			147254.00000
-6.25000			16.90097			147355.00000
-6.25000			16.98062			147456.00000
-6.25000			16.94417			147555.00000
-6.25000			16.90682			147655.00000
-6.25000			16.87842			147756.00000
-6.25000			16.83376			147855.00000
-6.25000			16.81340			147955.00000
-6.25000			16.79389			148056.00000
-6.25000			16.77768			148155.00000
-0.00244			0.34061			149397.00000
-0.00244			-0.09719			149498.00000
-0.00244			-0.25044			149597.00000
-0.00244			-0.23586			149697.00000
-0.00244			-0.21895			149798.00000
-0.00244			-0.20359			149897.00000
-0.00244			-0.19195			149997.00000
-0.00244			-0.18195			150098.00000
-0.00244			-0.17302			150197.00000
-0.00244			-0.16460			150297.00000
6.50000			-16.95540			151318.00000
6.50000			-17.35718			151419.00000
6.50000			-17.46214			151518.00000
6.50000			-17.42505			151618.00000
6.50000			-17.35198			151719.00000
6.50000			-17.32596			151818.00000
6.50000			-17.30400			151918.00000
6.50000			-17.28416			152019.00000
6.50000			-17.26544			152118.00000
6.50000			-17.24785			152218.00000
-6.50000			17.25006			154378.00000
-6.50000			17.61709			154478.00000
-6.50000			17.70805			154579.00000
-6.50000			17.67073			154678.00000
-6.50000			17.63101			154778.00000
-6.50000			17.60188			154879.00000
-6.50000			17.55247			154978.00000
-6.50000			17.53188			155078.00000
-6.50000			17.51406			155179.00000
-6.50000			17.49742			155278.00000
-0.00244			0.48172			156544.00000
-0.00244			-0.24109			156645.00000
-0.00244			-0.27512			156746.00000
-0.00244			-0.25519			156845.00000
-0.00244			-0.23571			156945.00000
-0.00244			-0.22078			157046.00000
-0.00244			-0.20801			157145.00000
-0.00244			-0.19562			157245.00000
-0.00244			-0.17795			157346.00000
-0.00244			-0.17142			157445.00000
6.75000			-17.31138			158471.00000
6.75000			-18.15570			158572.00000
6.75000			-18.16650			158673.00000
6.75000			-18.12146			158772.00000
6.75000			-18.08768			158872.00000
6.75000			-18.05747			158973.00000
6.75000			-18.03261			159072.00000
6.75000			-18.01107			159172.00000
6.75000			-17.99176			159273.00000
6.75000			-17.95555			159372.00000
-6.75000			18.10390			161562.00000
-6.75000			18.39911			161663.00000
-6.75000			18.44127			161762.00000
-6.75000			18.39952			161862.00000
-6.75000			18.36324			161963.00000
-6.75000			18.33354			162062.00000
-6.75000			18.30943			162162.00000
-6.75000			18.28683			162263.00000
-6.75000			18.24725			162362.00000
-6.75000			18.23006			162462.00000
-0.00244			0.40232			163746.00000
-0.00244			-0.25994			163847.00000
-0.00244			-0.28475			163947.00000
-0.00244			-0.26253			164048.00000
-0.00244			-0.24438			164147.00000
-0.00244			-0.22870			164247.00000
-0.00244			-0.21530			164348.00000
-0.00244			-0.20374			164447.00000
-0.00244			-0.19494			164547.00000
-0.00244			-0.17838			164648.00000
7.00000			-18.58518			165692.00000
7.00000			-18.85802			165794.00000
7.00000			-18.88564			165893.00000
7.00000			-18.83359			165993.00000
7.00000			-18.79621			166094.00000
7.00000			-18.76648			166193.00000
7.00000			-18.74064			166293.00000
7.00000			-18.71917			166394.00000
7.00000			-18.67783			166493.00000
7.00000			-18.65943			166593.00000
-7.00000			18.52881			168819.00000
-7.00000			19.02372			168920.00000
-7.00000			19.18888			169020.00000
-7.00000			19.12086			169121.00000
-7.00000			19.08756			169220.00000
-7.00000			19.05941			169320.00000
-7.00000			19.03380			169421.00000
-7.00000			19.01077			169520.00000
-7.00000			18.99132			169620.00000
-7.00000			18.97264			169721.00000
-0.00244			0.22999			171016.00000
-0.00244			-0.15412			171117.00000
-0.00244			-0.28757			171218.00000
-0.00244			-0.28985			171317.00000
-0.00244			-0.24959			171417.00000
-0.00244			-0.23466			171518.00000
-0.00244			-0.22292			171617.00000
-0.00244			-0.21135			171717.00000
-0.00244			-0.20017			171818.00000
-0.00244			-0.19110			171917.00000
7.25000			-18.76115			172980.00000
7.25000			-19.58801			173081.00000
7.25000			-19.60335			173182.00000
7.25000			-19.55494			173281.00000
7.25000			-19.51776			173381.00000
7.25000			-19.48730			173482.00000
7.25000			-19.46113			173581.00000
7.25000			-19.43851			173681.00000
7.25000			-19.39870			173782.00000
7.25000			-19.37982			173881.00000
-7.25000			19.06509			176144.00000
-7.25000			19.92129			176246.00000
-7.25000			19.94105			176345.00000
-7.25000			19.89505			176445.00000
-7.25000			19.85926			176546.00000
-7.25000			19.82930			176645.00000
-7.25000			19.80212			176745.00000
-7.25000			19.77789			176846.00000
-7.25000			19.73677			176945.00000
-7.25000			19.71943			177045.00000
-0.00244			-0.01447			178366.00000
-0.00244			-0.25436			178468.00000
-0.00244			-0.30936			178567.00000
-0.00244			-0.29214			178667.00000
-0.00244			-0.27070			178768.00000
-0.00244			-0.25278			178867.00000
-0.00244			-0.22601			178967.00000
-0.00244			-0.21611			179068.00000
-0.00244			-0.20701			179167.00000
-0.00244			-0.19871			179267.00000
7.50000			-19.64062			180343.00000
7.50000			-20.15395			180444.00000
7.50000			-20.32766			180544.00000
7.50000			-20.25824			180645.00000
7.50000			-20.22252			180744.00000
7.50000			-20.19281			180844.00000
7.50000			-20.16627			180945.00000
7.50000			-20.14267			181044.00000
7.50000			-20.12070			181144.00000
7.50000			-20.10114			181245.00000
-7.50000			19.80786			183525.00000
-7.50000			20.69188			183627.00000
-7.50000			20.69962			183726.00000
-7.50000			20.64118			183826.00000
-7.50000			20.60285			183927.00000
-7.50000			20.57131			184026.00000
-7.50000			20.54318			184126.00000
-7.50000			20.51847			184227.00000
-7.50000			20.47748			184326.00000
-7.50000			20.45812			184426.00000
-0.00244			0.02423			185747.00000
-0.00244			-0.25351			185848.00000
-0.00244			-0.32210			185947.00000
-0.00244			-0.30770			186047.00000
-0.00244			-0.28575			186148.00000
-0.00244			-0.26710			186247.00000
-0.00244			-0.25069			186347.00000
-0.00244			-0.22649			186448.00000
-0.00244			-0.21701			186547.00000
-0.00244			-0.20942			186647.00000
7.75000			-20.24592			187735.00000
7.75000			-20.82159			187836.00000
7.75000			-21.05017			187937.00000
7.75000			-21.00095			188036.00000
7.75000			-20.96272			188136.00000
7.75000			-20.93093			188237.00000
7.75000			-20.90353			188336.00000
7.75000			-20.87860			188436.00000
7.75000			-20.85711			188537.00000
7.75000			-20.81712			188636.00000
-7.75000			20.86632			190960.00000
-7.75000			21.34376			191062.00000
-7.75000			21.49085			191161.00000
-7.75000			21.46460			191261.00000
-7.75000			21.38261			191362.00000
-7.75000			21.35170			191461.00000
-7.75000			21.32418			191562.00000
-7.75000			21.29964			191661.00000
-7.75000			21.27757			191761.00000
-7.75000			21.25717			191862.00000
-0.00244			-0.07319			193218.00000
-0.00244			-0.28739			193319.00000
-0.00244			-0.33351			193418.00000
-0.00244			-0.31366			193518.00000
-0.00244			-0.29083			193619.00000
-0.00244			-0.27331			193718.00000
-0.00244			-0.25796			193818.00000
-0.00244			-0.23430			193919.00000
-0.00244			-0.22430			194018.00000
-0.00244			-0.21626			194118.00000
8.00000			-20.84172			195218.00000
8.00000			-21.75513			195319.00000
8.00000			-21.77014			195419.00000
8.00000			-21.71361			195519.00000
8.00000			-21.67299			195620.00000
8.00000			-21.63946			195719.00000
8.00000			-21.60992			195819.00000
8.00000			-21.58499			195920.00000
8.00000			-21.54043			196019.00000
8.00000			-21.52112			196119.00000
-8.00000			21.21539			198475.00000
-8.00000			22.24115			198575.00000
-8.00000			22.27491			198675.00000
-8.00000			22.21519			198776.00000
-8.00000			22.17258			198875.00000
-8.00000			22.13883			198975.00000
-8.00000			22.10829			199076.00000
-8.00000			22.08089			199175.00000
-8.00000			22.03519			199275.00000
-8.00000			22.01572			199376.00000
-0.00244			0.18681			200725.00000
-0.00244			-0.19944			200827.00000
-0.00244			-0.33766			200926.00000
-0.00244			-0.31360			201026.00000
-0.00244			-0.29287			201127.00000
-0.00244			-0.27623			201226.00000
-0.00244			-0.26208			201326.00000
-0.00244			-0.25034			201427.00000
-0.00244			-0.23900			201526.00000
-0.00244			-0.22935			201626.00000
8.25000			-21.89191			202763.00000
8.25000			-22.35513			202863.00000
8.25000			-22.49511			202964.00000
8.25000			-22.44524			203063.00000
8.25000			-22.40726			203163.00000
8.25000			-22.37496			203264.00000
8.25000			-22.34683			203363.00000
8.25000			-22.32142			203463.00000
8.25000			-22.29802			203564.00000
8.25000			-22.25725			203663.00000
-8.25000			22.66699			206061.00000
-8.25000			23.01503			206162.00000
-8.25000			23.09001			206261.00000
-8.25000			23.04339			206361.00000
-8.25000			22.99774			206462.00000
-8.25000			22.96338			206561.00000
-8.25000			22.90424			206661.00000
-8.25000			22.87918			206762.00000
-8.25000			22.85638			206861.00000
-8.25000			22.83451			206961.00000
-0.00244			-0.05305			208350.00000
-0.00244			-0.29307			208451.00000
-0.00244			-0.35611			208552.00000
-0.00244			-0.33799			208651.00000
-0.00244			-0.31371			208751.00000
-0.00244			-0.27985			208852.00000
-0.00244			-0.26660			208951.00000
-0.00244			-0.25413			209051.00000
-0.00244			-0.24370			209152.00000
-0.00244			-0.23415			209251.00000
8.50000			-22.70993			210382.00000
8.50000			-23.14339			210483.00000
8.50000			-23.25504			210583.00000
8.50000			-23.20909			210684.00000
8.50000			-23.11903			210783.00000
8.50000			-23.08613			210883.00000
8.50000			-23.05702			210984.00000
8.50000			-23.03242			211083.00000
8.50000			-23.00771			211183.00000
8.50000			-22.98662			211284.00000
-8.50000			23.43775			213704.00000
-8.50000			23.84089			213806.00000
-8.50000			23.92180			213905.00000
-8.50000			23.86088			214006.00000
-8.50000			23.80832			214105.00000
-8.50000			23.76974			214205.00000
-8.50000			23.70750			214306.00000
-8.50000			23.68192			214405.00000
-8.50000			23.65959			214505.00000
-8.50000			23.63680			214606.00000
-0.00244			-0.05677			215981.00000
-0.00244			-0.31554			216081.00000
-0.00244			-0.37272			216182.00000
-0.00244			-0.34897			216281.00000
-0.00244			-0.32361			216381.00000
-0.00244			-0.30636			216482.00000
-0.00244			-0.29000			216580.00000
-0.00244			-0.26316			216681.00000
-0.00244			-0.25333			216782.00000
-0.00244			-0.24348			216881.00000
8.75000			-23.47743			218036.00000
8.75000			-23.89120			218136.00000
8.75000			-24.00919			218237.00000
8.75000			-23.97352			218336.00000
8.75000			-23.88472			218436.00000
8.75000			-23.85121			218537.00000
8.75000			-23.82208			218636.00000
8.75000			-23.79479			218736.00000
8.75000			-23.77164			218837.00000
8.75000			-23.75025			218936.00000
-8.75000			24.11192			221381.00000
-8.75000			24.60673			221483.00000
-8.75000			24.76257			221582.00000
-8.75000			24.73326			221682.00000
-8.75000			24.63941			221783.00000
-8.75000			24.60497			221882.00000
-8.75000			24.57378			221982.00000
-8.75000			24.54696			222083.00000
-8.75000			24.52278			222182.00000
-8.75000			24.49936			222283.00000
-0.00244			0.18500			223695.00000
-0.00244			-0.36051			223795.00000
-0.00244			-0.37426			223895.00000
-0.00244			-0.34889			223996.00000
-0.00244			-0.32632			224095.00000
-0.00244			-0.30893			224195.00000
-0.00244			-0.29272			224296.00000
-0.00244			-0.27854			224395.00000
-0.00244			-0.25765			224495.00000
-0.00244			-0.24805			224596.00000
9.00000			-24.27373			225750.00000
9.00000			-24.67675			225850.00000
9.00000			-24.76367			225950.00000
9.00000			-24.70666			226051.00000
9.00000			-24.65506			226150.00000
9.00000			-24.61630			226251.00000
9.00000			-24.55314			226350.00000
9.00000			-24.52599			226450.00000
9.00000			-24.50080			226551.00000
9.00000			-24.47730			226650.00000
-9.00000			24.79143			229120.00000
-9.00000			25.40763			229221.00000
-9.00000			25.62088			229322.00000
-9.00000			25.51340			229421.00000
-9.00000			25.46984			229521.00000
-9.00000			25.43287			229622.00000
-9.00000			25.39934			229721.00000
-9.00000			25.37086			229821.00000
-9.00000			25.34462			229922.00000
-9.00000			25.32022			230021.00000
-0.00244			-0.15538			231445.00000
-0.00244			-0.35297			231547.00000
-0.00244			-0.39132			231646.00000
-0.00244			-0.36840			231746.00000
-0.00244			-0.34357			231847.00000
-0.00244			-0.32386			231946.00000
-0.00244			-0.30727			232046.00000
-0.00244			-0.27967			232147.00000
-0.00244			-0.26964			232246.00000
-0.00244			-0.25977			232346.00000
9.25000			-24.75130			233531.00000
9.25000			-25.29944			233633.00000
9.25000			-25.51367			233732.00000
9.25000			-25.45769			233832.00000
9.25000			-25.41366			233933.00000
9.25000			-25.37668			234032.00000
9.25000			-25.34431			234132.00000
9.25000			-25.31598			234233.00000
9.25000			-25.28982			234332.00000
9.25000			-25.24194			234432.00000
-9.25000			25.78014			236940.00000
-9.25000			26.30573			237040.00000
-9.25000			26.48550			237141.00000
-9.25000			26.41077			237240.00000
-9.25000			26.36669			237340.00000
-9.25000			26.33034			237441.00000
-9.25000			26.29704			237540.00000
-9.25000			26.26587			237640.00000
-9.25000			26.23875			237741.00000
-9.25000			26.21459			237840.00000
-0.00244			-0.13218			239278.00000
-0.00244			-0.35045			239378.00000
-0.00244			-0.40236			239479.00000
-0.00244			-0.38014			239578.00000
-0.00244			-0.35659			239678.00000
-0.00244			-0.33756			239779.00000
-0.00244			-0.30561			239878.00000
-0.00244			-0.29224			239978.00000
-0.00244			-0.28141			240079.00000
-0.00244			-0.27208			240178.00000
9.50000			-25.31292			241370.00000
9.50000			-26.27154			241470.00000
9.50000			-26.28961			241571.00000
9.50000			-26.22135			241670.00000
9.50000			-26.17296			241770.00000
9.50000			-26.13360			241871.00000
9.50000			-26.09977			241970.00000
9.50000			-26.06958			242070.00000
9.50000			-26.01634			242171.00000
9.50000			-25.99206			242270.00000
-9.50000			26.92383			244815.00000
-9.50000			27.32192			244915.00000
-9.50000			27.39086			245015.00000
-9.50000			27.30601			245116.00000
-9.50000			27.24707			245215.00000
-9.50000			27.20521			245315.00000
-9.50000			27.13542			245416.00000
-9.50000			27.10669			245515.00000
-9.50000			27.07954			245615.00000
-9.50000			27.05436			245716.00000
-0.00244			-0.21643			247176.00000
-0.00244			-0.38403			247276.00000
-0.00244			-0.40980			247378.00000
-0.00244			-0.38542			247477.00000
-0.00244			-0.36262			247577.00000
-0.00244			-0.34387			247678.00000
-0.00244			-0.32572			247777.00000
-0.00244			-0.30136			247877.00000
-0.00244			-0.29023			247978.00000
-0.00244			-0.27821			248077.00000
9.75000			-26.77271			249286.00000
9.75000			-27.04992			249388.00000
9.75000			-27.08044			249487.00000
9.75000			-27.01989			249587.00000
9.75000			-26.96982			249688.00000
9.75000			-26.92957			249787.00000
9.75000			-26.89315			249888.00000
9.75000			-26.83331			249987.00000
9.75000			-26.80765			250087.00000
9.75000			-26.78336			250188.00000
-9.75000			27.75082			252742.00000
-9.75000			28.20006			252844.00000
-9.75000			28.30754			252943.00000
-9.75000			28.25259			253043.00000
-9.75000			28.19380			253144.00000
-9.75000			28.10869			253243.00000
-9.75000			28.07368			253344.00000
-9.75000			28.04166			253443.00000
-9.75000			28.01328			253543.00000
-9.75000			27.98734			253644.00000
-0.00244			-0.15244			255104.00000
-0.00244			-0.37674			255205.00000
-0.00244			-0.43051			255306.00000
-0.00244			-0.40804			255405.00000
-0.00244			-0.38222			255505.00000
-0.00244			-0.36289			255606.00000
-0.00244			-0.32929			255705.00000
-0.00244			-0.31680			255805.00000
-0.00244			-0.30506			255906.00000
-0.00244			-0.29360			256005.00000
10.00000			-27.36557			257233.00000
10.00000			-27.76476			257333.00000
10.00000			-27.86862			257433.00000
10.00000			-27.81141			257534.00000
10.00000			-27.70570			257633.00000
10.00000			-27.66792			257733.00000
10.00000			-27.63441			257834.00000
10.00000			-27.60478			257933.00000
10.00000			-27.57663			258033.00000
10.00000			-27.55089			258134.00000
-10.00000			28.16344			260707.00000
-10.00000			29.19458			260807.00000
-10.00000			29.20063			260908.00000
-10.00000			29.10814			261007.00000
-10.00000			29.05174			261107.00000
-10.00000			29.00835			261208.00000
-10.00000			28.96967			261307.00000
-10.00000			28.93569			261408.00000
-10.00000			28.87667			261507.00000
-10.00000			28.85038			261607.00000
-0.00244			-0.22229			263093.00000
-0.00244			-0.40417			263194.00000
-0.00244			-0.43956			263295.00000
-0.00244			-0.41575			263394.00000
-0.00244			-0.39057			263494.00000
-0.00244			-0.37031			263595.00000
-0.00244			-0.35342			263694.00000
-0.00244			-0.32376			263794.00000
-0.00244			-0.31202			263895.00000
-0.00244			-0.30086			263994.00000
10.25000			-28.14209			265222.00000
10.25000			-28.57089			265322.00000
10.25000			-28.67289			265423.00000
10.25000			-28.61403			265522.00000
10.25000			-28.55287			265622.00000
10.25000			-28.46927			265723.00000
10.25000			-28.43393			265822.00000
10.25000			-28.40317			265922.00000
10.25000			-28.37567			266023.00000
10.25000			-28.34983			266122.00000
-10.25000			29.72711			268714.00000
-10.25000			30.11952			268815.00000
-10.25000			30.17173			268915.00000
-10.25000			30.09929			269016.00000
-10.25000			30.03914			269115.00000
-10.25000			29.99136			269216.00000
-10.25000			29.94931			269315.00000
-10.25000			29.87941			269415.00000
-10.25000			29.84982			269516.00000
-10.25000			29.82172			269615.00000
-0.00244			-0.18728			271101.00000
-0.00244			-0.40753			271202.00000
-0.00244			-0.45584			271302.00000
-0.00244			-0.43413			271403.00000
-0.00244			-0.40796			271502.00000
-0.00244			-0.38617			271602.00000
-0.00244			-0.35126			271703.00000
-0.00244			-0.33733			271802.00000
-0.00244			-0.32474			271902.00000
-0.00244			-0.31431			272003.00000
10.50000			-28.72406			273242.00000
10.50000			-29.27168			273342.00000
10.50000			-29.44956			273443.00000
10.50000			-29.32901			273542.00000
10.50000			-29.28013			273642.00000
10.50000			-29.23835			273743.00000
10.50000			-29.20100			273842.00000
10.50000			-29.16792			273942.00000
10.50000			-29.13753			274043.00000
10.50000			-29.11061			274142.00000
-10.50000			29.91417			276784.00000
-10.50000			31.08704			276884.00000
-10.50000			31.08802			276985.00000
-10.50000			30.98761			277084.00000
-10.50000			30.92668			277184.00000
-10.50000			30.87890			277285.00000
-10.50000			30.83622			277384.00000
-10.50000			30.79890			277484.00000
-10.50000			30.73357			277585.00000
-10.50000			30.70501			277684.00000
-0.00244			-0.19869			279193.00000
-0.00244			-0.41141			279295.00000
-0.00244			-0.46746			279394.00000
-0.00244			-0.44677			279494.00000
-0.00244			-0.41902			279595.00000
-0.00244			-0.37853			279694.00000
-0.00244			-0.36392			279794.00000
-0.00244			-0.34940			279895.00000
-0.00244			-0.33809			279994.00000
-0.00244			-0.32602			280094.00000
10.75000			-29.32607			281359.00000
10.75000			-30.22890			281459.00000
10.75000			-30.23913			281560.00000
10.75000			-30.16589			281659.00000
10.75000			-30.11049			281760.00000
10.75000			-30.06524			281859.00000
10.75000			-30.02543			281959.00000
10.75000			-29.99059			282060.00000
10.75000			-29.92899			282159.00000
10.75000			-29.90171			282259.00000
-10.75000			31.32789			284937.00000
-10.75000			31.91381			285037.00000
-10.75000			32.08857			285138.00000
-10.75000			31.96094			285237.00000
-10.75000			31.90380			285337.00000
-10.75000			31.85434			285438.00000
-10.75000			31.81116			285537.00000
-10.75000			31.77358			285637.00000
-10.75000			31.73899			285738.00000
-10.75000			31.70634			285838.00000
-0.00244			-0.26580			287359.00000
-0.00244			-0.44717			287460.00000
-0.00244			-0.48362			287560.00000
-0.00244			-0.45778			287661.00000
-0.00244			-0.43068			287760.00000
-0.00244			-0.41050			287861.00000
-0.00244			-0.37518			287960.00000
-0.00244			-0.36098			288060.00000
-0.00244			-0.34930			288161.00000
-0.00244			-0.33894			288260.00000
11.00000			-30.07608			289531.00000
11.00000			-31.02181			289631.00000
11.00000			-30.99979			289731.00000
11.00000			-30.90752			289832.00000
11.00000			-30.84956			289931.00000
11.00000			-30.80228			290031.00000
11.00000			-30.76058			290132.00000
11.00000			-30.72479			290231.00000
11.00000			-30.66135			290331.00000
11.00000			-30.63397			290432.00000
-11.00000			32.08870			293116.00000
-11.00000			32.79884			293216.00000
-11.00000			32.97783			293316.00000
-11.00000			32.87374			293417.00000
-11.00000			32.80909			293516.00000
-11.00000			32.75576			293616.00000
-11.00000			32.71004			293717.00000
-11.00000			32.66907			293816.00000
-11.00000			32.63157			293916.00000
-11.00000			32.59854			294017.00000
-0.00244			-0.21339			295545.00000
-0.00244			-0.44041			295646.00000
-0.00244			-0.49963			295746.00000
-0.00244			-0.47678			295847.00000
-0.00244			-0.44971			295946.00000
-0.00244			-0.40686			296046.00000
-0.00244			-0.38969			296147.00000
-0.00244			-0.37599			296246.00000
-0.00244			-0.36415			296346.00000
-0.00244			-0.35286			296447.00000
11.00000			-30.44320			297717.00000
11.00000			-30.76380			297818.00000
11.00000			-30.78099			297918.00000
11.00000			-30.69254			298019.00000
11.00000			-30.63355			298118.00000
11.00000			-30.58886			298218.00000
11.00000			-30.54824			298319.00000
11.00000			-30.48080			298418.00000
11.00000			-30.45200			298518.00000
11.00000			-30.42580			298619.00000
-11.00000			31.66050			301302.00000
-11.00000			32.77483			301403.00000
-11.00000			32.75035			301503.00000
-11.00000			32.64318			301604.00000
-11.00000			32.58076			301703.00000
-11.00000			32.53127			301803.00000
-11.00000			32.48686			301904.00000
-11.00000			32.44702			302003.00000
-11.00000			32.41209			302103.00000
-11.00000			32.34912			302204.00000
-0.00244			-0.17049			303725.00000
-0.00244			-0.42432			303826.00000
-0.00244			-0.50081			303925.00000
-0.00244			-0.48472			304025.00000
-0.00244			-0.45647			304126.00000
-0.00244			-0.41427			304225.00000
-0.00244			-0.39758			304324.00000
-0.00244			-0.38285			304426.00000
-0.00244			-0.36928			304525.00000
-0.00244			-0.35689			304625.00000
10.75000			-29.30581			305896.00000
10.75000			-29.59648			305997.00000
10.75000			-29.63345			306096.00000
10.75000			-29.56837			306196.00000
10.75000			-29.51501			306297.00000
10.75000			-29.47356			306396.00000
10.75000			-29.43669			306496.00000
10.75000			-29.37353			306597.00000
10.75000			-29.34643			306696.00000
10.75000			-29.32245			306796.00000
-10.75000			30.45987			309474.00000
-10.75000			31.14551			309575.00000
-10.75000			31.38482			309676.00000
-10.75000			31.30896			309775.00000
-10.75000			31.25585			309875.00000
-10.75000			31.21083			309976.00000
-10.75000			31.17077			310075.00000
-10.75000			31.13616			310176.00000
-10.75000			31.10451			310275.00000
-10.75000			31.04725			310375.00000
-0.00244			-0.22754			311897.00000
-0.00244			-0.43978			311997.00000
-0.00244			-0.49513			312099.00000
-0.00244			-0.47565			312198.00000
-0.00244			-0.44715			312298.00000
-0.00244			-0.40625			312399.00000
-0.00244			-0.38994			312498.00000
-0.00244			-0.37664			312598.00000
-0.00244			-0.36337			312699.00000
-0.00244			-0.35163			312798.00000
10.50000			-27.71904			314038.00000
10.50000			-28.33583			314138.00000
10.50000			-28.55051			314239.00000
10.50000			-28.47860			314338.00000
10.50000			-28.43187			314438.00000
10.50000			-28.39434			314539.00000
10.50000			-28.36046			314638.00000
10.50000			-28.32987			314738.00000
10.50000			-28.30192			314839.00000
10.50000			-28.27623			314938.00000
-10.50000			29.17216			317548.00000
-10.50000			29.87817			317650.00000
-10.50000			30.14262			317749.00000
-10.50000			30.02119			317849.00000
-10.50000			29.96944			317950.00000
-10.50000			29.92694			318049.00000
-10.50000			29.89104			318149.00000
-10.50000			29.85890			318250.00000
-10.50000			29.82750			318349.00000
-10.50000			29.79983			318449.00000
-0.00244			-0.28847			319960.00000
-0.00244			-0.45454			320061.00000
-0.00244			-0.48279			320162.00000
-0.00244			-0.45620			320261.00000
-0.00244			-0.43222			320360.00000
-0.00244			-0.41223			320462.00000
-0.00244			-0.39346			320561.00000
-0.00244			-0.36599			320661.00000
-0.00244			-0.35528			320762.00000
-0.00244			-0.34364			320861.00000
10.25000			-27.07925			322089.00000
10.25000			-27.50474			322190.00000
10.25000			-27.60692			322290.00000
10.25000			-27.55232			322391.00000
10.25000			-27.49830			322490.00000
10.25000			-27.42184			322590.00000
10.25000			-27.39030			322691.00000
10.25000			-27.36258			322790.00000
10.25000			-27.33706			322891.00000
10.25000			-27.31336			322990.00000
-10.25000			28.52453			325583.00000
-10.25000			28.92538			325684.00000
-10.25000			28.99015			325784.00000
-10.25000			28.92855			325885.00000
-10.25000			28.87589			325984.00000
-10.25000			28.83256			326084.00000
-10.25000			28.79392			326185.00000
-10.25000			28.73166			326284.00000
-10.25000			28.70578			326384.00000
-10.25000			28.67956			326485.00000
-0.00244			-0.22267			327970.00000
-0.00244			-0.43352			328070.00000
-0.00244			-0.48058			328170.00000
-0.00244			-0.45785			328271.00000
-0.00244			-0.42993			328370.00000
-0.00244			-0.40746			328470.00000
-0.00244			-0.37443			328571.00000
-0.00244			-0.36046			328670.00000
-0.00244			-0.34799			328770.00000
-0.00244			-0.33778			328871.00000
10.00000			-26.13541			330097.00000
10.00000			-26.54121			330199.00000
10.00000			-26.65502			330298.00000
10.00000			-26.60398			330398.00000
10.00000			-26.50683			330499.00000
10.00000			-26.47305			330598.00000
10.00000			-26.44223			330699.00000
10.00000			-26.41453			330798.00000
10.00000			-26.39015			330898.00000
10.00000			-26.36801			330999.00000
-10.00000			26.82035			333572.00000
-10.00000			27.84520			333673.00000
-10.00000			27.86074			333774.00000
-10.00000			27.77611			333873.00000
-10.00000			27.72586			333973.00000
-10.00000			27.68710			334074.00000
-10.00000			27.65126			334173.00000
-10.00000			27.62065			334273.00000
-10.00000			27.56925			334374.00000
-10.00000			27.54575			334473.00000
-0.00244			-0.25961			335965.00000
-0.00244			-0.43227			336065.00000
-0.00244			-0.46753			336166.00000
-0.00244			-0.44348			336265.00000
-0.00244			-0.41852			336365.00000
-0.00244			-0.39766			336466.00000
-0.00244			-0.36468			336565.00000
-0.00244			-0.35075			336665.00000
-0.00244			-0.33826			336766.00000
-0.00244			-0.32808			336865.00000
9.75000			-25.35738			338074.00000
9.75000			-25.68738			338176.00000
9.75000			-25.75019			338275.00000
9.75000			-25.69733			338375.00000
9.75000			-25.64870			338476.00000
9.75000			-25.61157			338575.00000
9.75000			-25.54989			338675.00000
9.75000			-25.52450			338776.00000
9.75000			-25.50153			338875.00000
9.75000			-25.47996			338976.00000
-9.75000			26.14598			341531.00000
-9.75000			26.66926			341632.00000
-9.75000			26.82947			341731.00000
-9.75000			26.79516			341831.00000
-9.75000			26.69681			341932.00000
-9.75000			26.66072			342031.00000
-9.75000			26.62852			342131.00000
-9.75000			26.60127			342232.00000
-9.75000			26.57541			342331.00000
-9.75000			26.55166			342432.00000
-0.00244			-0.14681			343892.00000
-0.00244			-0.38876			343992.00000
-0.00244			-0.45700			344093.00000
-0.00244			-0.43915			344194.00000
-0.00244			-0.41226			344293.00000
-0.00244			-0.37348			344394.00000
-0.00244			-0.35794			344493.00000
-0.00244			-0.34500			344593.00000
-0.00244			-0.33195			344694.00000
-0.00244			-0.32162			344793.00000
9.50000			-24.45755			345984.00000
9.50000			-24.80536			346085.00000
9.50000			-24.87064			346186.00000
9.50000			-24.81112			346285.00000
9.50000			-24.76206			346385.00000
9.50000			-24.72448			346486.00000
9.50000			-24.66531			346585.00000
9.50000			-24.63993			346685.00000
9.50000			-24.61660			346786.00000
9.50000			-24.59504			346885.00000
-9.50000			25.21907			349429.00000
-9.50000			25.69521			349530.00000
-9.50000			25.82566			349630.00000
-9.50000			25.75736			349731.00000
-9.50000			25.69606			349830.00000
-9.50000			25.62194			349930.00000
-9.50000			25.59190			350031.00000
-9.50000			25.56576			350130.00000
-9.50000			25.54251			350230.00000
-9.50000			25.51944			350331.00000
-0.00244			-0.20949			351791.00000
-0.00244			-0.40030			351892.00000
-0.00244			-0.44458			351993.00000
-0.00244			-0.42327			352092.00000
-0.00244			-0.39806			352192.00000
-0.00244			-0.37601			352293.00000
-0.00244			-0.34485			352392.00000
-0.00244			-0.33140			352492.00000
-0.00244			-0.32082			352593.00000
-0.00244			-0.31152			352692.00000
9.25000			-23.72491			353877.00000
9.25000			-23.98702			353978.00000
9.25000			-24.02261			354078.00000
9.25000			-23.97204			354178.00000
9.25000			-23.92954			354278.00000
9.25000			-23.89513			354379.00000
9.25000			-23.86504			354478.00000
9.25000			-23.83817			354578.00000
9.25000			-23.79232			354679.00000
9.25000			-23.77234			354778.00000
-9.25000			24.00902			357285.00000
-9.25000			24.60228			357386.00000
-9.25000			24.84006			357486.00000
-9.25000			24.78567			357587.00000
-9.25000			24.74372			357686.00000
-9.25000			24.71011			357786.00000
-9.25000			24.68000			357887.00000
-9.25000			24.65225			357986.00000
-9.25000			24.62782			358086.00000
-9.25000			24.58399			358187.00000
-0.00244			-0.13768			359622.00000
-0.00244			-0.37086			359724.00000
-0.00244			-0.43473			359823.00000
-0.00244			-0.41812			359923.00000
-0.00244			-0.39416			360024.00000
-0.00244			-0.35535			360123.00000
-0.00244			-0.34093			360224.00000
-0.00244			-0.32914			360323.00000
-0.00244			-0.31675			360423.00000
-0.00244			-0.30493			360524.00000
9.00000			-22.38459			361678.00000
9.00000			-22.97259			361778.00000
9.00000			-23.18456			361878.00000
9.00000			-23.12800			361979.00000
9.00000			-23.08779			362078.00000
9.00000			-23.05557			362178.00000
9.00000			-23.02681			362279.00000
9.00000			-23.00123			362378.00000
9.00000			-22.97730			362478.00000
9.00000			-22.93680			362579.00000
-9.00000			23.48277			365049.00000
-9.00000			23.86538			365150.00000
-9.00000			23.92771			365250.00000
-9.00000			23.85685			365351.00000
-9.00000			23.80767			365450.00000
-9.00000			23.77175			365550.00000
-9.00000			23.74023			365651.00000
-9.00000			23.68820			365750.00000
-9.00000			23.66618			365850.00000
-9.00000			23.64554			365951.00000
-0.00244			-0.04587			367380.00000
-0.00244			-0.32383			367482.00000
-0.00244			-0.41759			367581.00000
-0.00244			-0.38484			367681.00000
-0.00244			-0.36443			367782.00000
-0.00244			-0.34681			367881.00000
-0.00244			-0.33168			367981.00000
-0.00244			-0.31871			368082.00000
-0.00244			-0.30684			368181.00000
-0.00244			-0.29649			368281.00000
8.75000			-22.11931			369435.00000
8.75000			-22.37360			369537.00000
8.75000			-22.40608			369636.00000
8.75000			-22.35727			369736.00000
8.75000			-22.31677			369837.00000
8.75000			-22.28422			369936.00000
8.75000			-22.25637			370037.00000
8.75000			-22.23003			370136.00000
8.75000			-22.18685			370236.00000
8.75000			-22.16641			370337.00000
-8.75000			22.64781			372788.00000
-8.75000			22.97695			372889.00000
-8.75000			23.03562			372990.00000
-8.75000			22.98668			373089.00000
-8.75000			22.94325			373189.00000
-8.75000			22.90823			373290.00000
-8.75000			22.85130			373389.00000
-8.75000			22.82800			373489.00000
-8.75000			22.80616			373590.00000
-8.75000			22.78590			373689.00000
-0.00244			-0.07982			375101.00000
-0.00244			-0.33608			375202.00000
-0.00244			-0.41161			375302.00000
-0.00244			-0.39796			375402.00000
-0.00244			-0.35113			375503.00000
-0.00244			-0.33472			375602.00000
-0.00244			-0.31918			375702.00000
-0.00244			-0.30647			375803.00000
-0.00244			-0.29651			375902.00000
-0.00244			-0.28716			376002.00000
8.50000			-20.98409			377133.00000
8.50000			-21.46515			377233.00000
8.50000			-21.61649			377334.00000
8.50000			-21.53520			377433.00000
8.50000			-21.49918			377533.00000
8.50000			-21.46939			377634.00000
8.50000			-21.44366			377733.00000
8.50000			-21.41983			377833.00000
8.50000			-21.39799			377934.00000
8.50000			-21.37785			378033.00000
-8.50000			21.65538			380450.00000
-8.50000			22.07267			380550.00000
-8.50000			22.17487			380650.00000
-8.50000			22.12234			380751.00000
-8.50000			22.07224			380850.00000
-8.50000			22.00815			380950.00000
-8.50000			21.97959			381051.00000
-8.50000			21.95559			381150.00000
-8.50000			21.93438			381250.00000
-8.50000			21.91432			381351.00000
-0.00244			-0.08797			382732.00000
-0.00244			-0.34133			382833.00000
-0.00244			-0.40361			382934.00000
-0.00244			-0.38459			383033.00000
-0.00244			-0.35988			383133.00000
-0.00244			-0.32293			383234.00000
-0.00244			-0.30906			383333.00000
-0.00244			-0.29817			383434.00000
-0.00244			-0.28746			383533.00000
-0.00244			-0.27776			383633.00000
8.25000			-20.41252			384764.00000
8.25000			-20.76082			384865.00000
8.25000			-20.85540			384965.00000
8.25000			-20.82415			385066.00000
8.25000			-20.78175			385165.00000
8.25000			-20.72030			385265.00000
8.25000			-20.69541			385366.00000
8.25000			-20.67317			385465.00000
8.25000			-20.65226			385565.00000
8.25000			-20.63255			385666.00000
-8.25000			20.47891			388062.00000
-8.25000			21.30485			388163.00000
-8.25000			21.32264			388264.00000
-8.25000			21.27345			388363.00000
-8.25000			21.23490			388463.00000
-8.25000			21.20421			388564.00000
-8.25000			21.17761			388663.00000
-8.25000			21.15308			388763.00000
-8.25000			21.11005			388864.00000
-8.25000			21.09233			388963.00000
-0.00244			0.16391			390352.00000
-0.00244			-0.36563			390452.00000
-0.00244			-0.38750			390552.00000
-0.00244			-0.36400			390653.00000
-0.00244			-0.34218			390752.00000
-0.00244			-0.32424			390852.00000
-0.00244			-0.30830			390953.00000
-0.00244			-0.29528			391052.00000
-0.00244			-0.27402			391152.00000
-0.00244			-0.26550			391253.00000
8.00000			-19.34687			392352.00000
8.00000			-19.89298			392453.00000
8.00000			-20.08466			392553.00000
8.00000			-20.03343			392654.00000
8.00000			-19.99799			392753.00000
8.00000			-19.96954			392853.00000
8.00000			-19.94395			392954.00000
8.00000			-19.92022			393053.00000
8.00000			-19.89991			393153.00000
8.00000			-19.86251			393254.00000
-8.00000			19.65144			395608.00000
-8.00000			20.25893			395708.00000
-8.00000			20.50183			395809.00000
-8.00000			20.44872			395908.00000
-8.00000			20.41107			396008.00000
-8.00000			20.38008			396109.00000
-8.00000			20.35399			396208.00000
-8.00000			20.33112			396308.00000
-8.00000			20.30990			396409.00000
-8.00000			20.27115			396508.00000
-0.00244			0.01257			397859.00000
-0.00244			-0.28648			397960.00000
-0.00244			-0.37838			398060.00000
-0.00244			-0.36541			398161.00000
-0.00244			-0.34181			398260.00000
-0.00244			-0.30614			398360.00000
-0.00244			-0.29257			398461.00000
-0.00244			-0.28045			398560.00000
-0.00244			-0.27020			398660.00000
-0.00244			-0.26024			398761.00000
7.75000			-19.04216			399847.00000
7.75000			-19.32659			399949.00000
7.75000			-19.37432			400048.00000
7.75000			-19.33083			400148.00000
7.75000			-19.29358			400249.00000
7.75000			-19.26360			400348.00000
7.75000			-19.23834			400448.00000
7.75000			-19.19317			400549.00000
7.75000			-19.17399			400648.00000
7.75000			-19.15725			400748.00000
-7.75000			18.94060			403073.00000
-7.75000			19.50259			403173.00000
-7.75000			19.71674			403274.00000
-7.75000			19.67175			403373.00000
-7.75000			19.63782			403473.00000
-7.75000			19.60833			403574.00000
-7.75000			19.58197			403673.00000
-7.75000			19.55960			403773.00000
-7.75000			19.53894			403874.00000
-7.75000			19.52111			403973.00000
-0.00244			-0.05092			405330.00000
-0.00244			-0.29581			405431.00000
-0.00244			-0.36458			405531.00000
-0.00244			-0.35065			405632.00000
-0.00244			-0.30923			405731.00000
-0.00244			-0.29410			405831.00000
-0.00244			-0.28090			405932.00000
-0.00244			-0.26947			406031.00000
-0.00244			-0.26037			406131.00000
-0.00244			-0.25087			406232.00000
7.50000			-17.79227			407306.00000
7.50000			-18.61944			407407.00000
7.50000			-18.63879			407508.00000
7.50000			-18.58832			407607.00000
7.50000			-18.55265			407707.00000
7.50000			-18.52490			407808.00000
7.50000			-18.49982			407907.00000
7.50000			-18.47740			408007.00000
7.50000			-18.44070			408108.00000
7.50000			-18.42326			408207.00000
-7.50000			18.58923			410489.00000
-7.50000			18.90669			410590.00000
-7.50000			18.96136			410690.00000
-7.50000			18.90971			410791.00000
-7.50000			18.87080			410890.00000
-7.50000			18.84104			410990.00000
-7.50000			18.81470			411091.00000
-7.50000			18.77161			411190.00000
-7.50000			18.75342			411290.00000
-7.50000			18.73517			411391.00000
-0.00244			0.05065			412717.00000
-0.00244			-0.25597			412818.00000
-0.00244			-0.35352			412919.00000
-0.00244			-0.34625			413018.00000
-0.00244			-0.30244			413118.00000
-0.00244			-0.28699			413219.00000
-0.00244			-0.27374			413318.00000
-0.00244			-0.26193			413418.00000
-0.00244			-0.25228			413519.00000
-0.00244			-0.24220			413618.00000
7.25000			-17.18423			414682.00000
7.25000			-17.71327			414782.00000
7.25000			-17.91709			414883.00000
7.25000			-17.87132			414982.00000
7.25000			-17.83857			415082.00000
7.25000			-17.81170			415183.00000
7.25000			-17.78792			415282.00000
7.25000			-17.76691			415382.00000
7.25000			-17.74740			415483.00000
7.25000			-17.71249			415582.00000
-7.25000			17.44569			417845.00000
-7.25000			17.98956			417945.00000
-7.25000			18.20188			418046.00000
-7.25000			18.15887			418145.00000
-7.25000			18.12569			418245.00000
-7.25000			18.09852			418346.00000
-7.25000			18.07459			418445.00000
-7.25000			18.05363			418545.00000
-7.25000			18.03320			418646.00000
-7.25000			17.99851			418746.00000
-0.00244			-0.11825			420066.00000
-0.00244			-0.30664			420166.00000
-0.00244			-0.34253			420267.00000
-0.00244			-0.32288			420366.00000
-0.00244			-0.30169			420466.00000
-0.00244			-0.28425			420567.00000
-0.00244			-0.27065			420666.00000
-0.00244			-0.24858			420766.00000
-0.00244			-0.23853			420867.00000
-0.00244			-0.23161			420966.00000
7.00000			-16.83005			422012.00000
7.00000			-17.15309			422112.00000
7.00000			-17.21565			422212.00000
7.00000			-17.17070			422313.00000
7.00000			-17.13396			422412.00000
7.00000			-17.10618			422512.00000
7.00000			-17.06059			422613.00000
7.00000			-17.04176			422712.00000
7.00000			-17.02309			422812.00000
7.00000			-17.00708			422913.00000
-7.00000			16.71547			425139.00000
-7.00000			17.25889			425240.00000
-7.00000			17.46346			425341.00000
-7.00000			17.41787			425440.00000
-7.00000			17.38456			425540.00000
-7.00000			17.35852			425641.00000
-7.00000			17.33444			425740.00000
-7.00000			17.31358			425840.00000
-7.00000			17.29536			425941.00000
-7.00000			17.26253			426040.00000
-0.00244			0.23632			427336.00000
-0.00244			-0.16217			427438.00000
-0.00244			-0.32936			427537.00000
-0.00244			-0.30531			427638.00000
-0.00244			-0.28538			427737.00000
-0.00244			-0.27037			427837.00000
-0.00244			-0.25846			427938.00000
-0.00244			-0.24652			428037.00000
-0.00244			-0.23601			428137.00000
-0.00244			-0.21983			428238.00000
6.75000			-15.80557			429264.00000
6.75000			-16.31968			429365.00000
6.75000			-16.50018			429465.00000
6.75000			-16.45896			429566.00000
6.75000			-16.42709			429665.00000
6.75000			-16.40054			429765.00000
6.75000			-16.37948			429866.00000
6.75000			-16.36040			429965.00000
6.75000			-16.34256			430065.00000
6.75000			-16.32549			430166.00000
-6.75000			15.89986			432355.00000
-6.75000			16.72821			432455.00000
-6.75000			16.74656			432556.00000
-6.75000			16.70619			432655.00000
-6.75000			16.67402			432755.00000
-6.75000			16.64768			432855.00000
-6.75000			16.62423			432955.00000
-6.75000			16.60291			433056.00000
-6.75000			16.58434			433155.00000
-6.75000			16.55136			433255.00000
-0.00244			0.20601			434539.00000
-0.00244			-0.16998			434640.00000
-0.00244			-0.31609			434739.00000
-0.00244			-0.29244			434839.00000
-0.00244			-0.27379			434940.00000
-0.00244			-0.25906			435039.00000
-0.00244			-0.24569			435139.00000
-0.00244			-0.23523			435240.00000
-0.00244			-0.22503			435339.00000
-0.00244			-0.21636			435439.00000
6.50000			-15.28510			436460.00000
6.50000			-15.69628			436562.00000
6.50000			-15.81867			436661.00000
6.50000			-15.78959			436761.00000
6.50000			-15.72024			436862.00000
6.50000			-15.69495			436961.00000
6.50000			-15.67492			437061.00000
6.50000			-15.65768			437162.00000
6.50000			-15.64116			437261.00000
6.50000			-15.62568			437361.00000
-6.50000			15.57077			439521.00000
-6.50000			15.94551			439621.00000
-6.50000			16.04889			439722.00000
-6.50000			16.01589			439821.00000
-6.50000			15.97632			439921.00000
-6.50000			15.92603			440022.00000
-6.50000			15.90486			440121.00000
-6.50000			15.88491			440221.00000
-6.50000			15.86839			440322.00000
-6.50000			15.85296			440421.00000
-0.00244			-0.07175			441687.00000
-0.00244			-0.27339			441788.00000
-0.00244			-0.30755			441889.00000
-0.00244			-0.28643			441988.00000
-0.00244			-0.26630			442088.00000
-0.00244			-0.25011			442189.00000
-0.00244			-0.23812			442288.00000
-0.00244			-0.21691			442388.00000
-0.00244			-0.20786			442489.00000
-0.00244			-0.20072			442588.00000
6.25000			-14.55003			443577.00000
6.25000			-15.00216			443678.00000
6.25000			-15.13954			443779.00000
6.25000			-15.11770			443878.00000
6.25000			-15.05190			443979.00000
6.25000			-15.02799			444078.00000
6.25000			-15.00766			444178.00000
6.25000			-14.99082			444279.00000
6.25000			-14.97415			444378.00000
6.25000			-14.95867			444478.00000
-6.25000			14.98633			446620.00000
-6.25000			15.30042			446721.00000
-6.25000			15.35348			446820.00000
-6.25000			15.31643			446920.00000
-6.25000			15.28315			447021.00000
-6.25000			15.25844			447120.00000
-6.25000			15.23612			447221.00000
-6.25000			15.19734			447320.00000
-6.25000			15.18273			447420.00000
-6.25000			15.16778			447521.00000
-0.00244			0.17369			448762.00000
-0.00244			-0.17607			448863.00000
-0.00244			-0.28809			448963.00000
-0.00244			-0.28410			449064.00000
-0.00244			-0.24504			449163.00000
-0.00244			-0.23071			449263.00000
-0.00244			-0.22003			449364.00000
-0.00244			-0.21033			449463.00000
-0.00244			-0.20163			449563.00000
-0.00244			-0.19326			449664.00000
6.00000			-13.64964			450635.00000
6.00000			-14.22297			450736.00000
6.00000			-14.43833			450836.00000
6.00000			-14.39482			450937.00000
6.00000			-14.36576			451036.00000
6.00000			-14.34136			451136.00000
6.00000			-14.32137			451237.00000
6.00000			-14.30345			451336.00000
6.00000			-14.28739			451436.00000
6.00000			-14.25957			451537.00000
-6.00000			13.75693			453635.00000
-6.00000			14.63612			453735.00000
-6.00000			14.65862			453836.00000
-6.00000			14.61448			453935.00000
-6.00000			14.58327			454035.00000
-6.00000			14.55841			454136.00000
-6.00000			14.53835			454235.00000
-6.00000			14.51935			454335.00000
-6.00000			14.48587			454436.00000
-6.00000			14.47157			454535.00000
-0.00244			0.02758			455782.00000
-0.00244			-0.21485			455884.00000
-0.00244			-0.27992			455983.00000
-0.00244			-0.26776			456083.00000
-0.00244			-0.24735			456184.00000
-0.00244			-0.21980			456283.00000
-0.00244			-0.20894			456383.00000
-0.00244			-0.19856			456484.00000
-0.00244			-0.19120			456583.00000
-0.00244			-0.18315			456683.00000
5.75000			-13.19869			457655.00000
5.75000			-13.63672			457755.00000
5.75000			-13.78293			457856.00000
5.75000			-13.73462			457955.00000
5.75000			-13.70790			458055.00000
5.75000			-13.68496			458156.00000
5.75000			-13.66490			458255.00000
5.75000			-13.64889			458355.00000
5.75000			-13.63521			458456.00000
5.75000			-13.62073			458555.00000
-5.75000			13.46840			460629.00000
-5.75000			13.86973			460730.00000
-5.75000			13.99124			460830.00000
-5.75000			13.97306			460931.00000
-5.75000			13.91211			461030.00000
-5.75000			13.89054			461131.00000
-5.75000			13.87142			461230.00000
-5.75000			13.85365			461330.00000
-5.75000			13.83721			461431.00000
-5.75000			13.82406			461530.00000
-0.00244			0.21275			462754.00000
-0.00244			-0.13876			462854.00000
-0.00244			-0.26065			462954.00000
-0.00244			-0.24318			463055.00000
-0.00244			-0.22510			463154.00000
-0.00244			-0.21161			463254.00000
-0.00244			-0.20150			463355.00000
-0.00244			-0.19336			463454.00000
-0.00244			-0.18333			463554.00000
-0.00244			-0.17501			463655.00000
5.50000			-12.50165			464595.00000
5.50000			-12.96295			464696.00000
5.50000			-13.11359			464796.00000
5.50000			-13.05676			464897.00000
5.50000			-13.02969			464996.00000
5.50000			-13.00865			465096.00000
5.50000			-12.99015			465196.00000
5.50000			-12.97338			465296.00000
5.50000			-12.95823			465397.00000
5.50000			-12.94473			465496.00000
-5.50000			12.55409			467515.00000
-5.50000			13.09877			467617.00000
-5.50000			13.31133			467716.00000
-5.50000			13.26953			467816.00000
-5.50000			13.24206			467917.00000
-5.50000			13.21836			468016.00000
-5.50000			13.19885			468116.00000
-5.50000			13.18144			468217.00000
-5.50000			13.16487			468316.00000
-5.50000			13.13853			468416.00000
-0.00244			0.29534			469615.00000
-0.00244			-0.10109			469717.00000
-0.00244			-0.24742			469816.00000
-0.00244			-0.23383			469916.00000
-0.00244			-0.21719			470017.00000
-0.00244			-0.20437			470116.00000
-0.00244			-0.19419			470216.00000
-0.00244			-0.18464			470317.00000
-0.00244			-0.17483			470416.00000
-0.00244			-0.16762			470517.00000
5.25000			-11.96120			471438.00000
5.25000			-12.36160			471539.00000
5.25000			-12.47367			471640.00000
5.25000			-12.45171			471739.00000
5.25000			-12.41996			471840.00000
5.25000			-12.37492			471939.00000
5.25000			-12.35654			472039.00000
5.25000			-12.34086			472140.00000
5.25000			-12.32716			472239.00000
5.25000			-12.31434			472339.00000
-5.25000			12.26956			474322.00000
-5.25000			12.59566			474423.00000
-5.25000			12.66783			474523.00000
-5.25000			12.63973			474624.00000
-5.25000			12.60853			474723.00000
-5.25000			12.58430			474823.00000
-5.25000			12.54728			474924.00000
-5.25000			12.53252			475023.00000
-5.25000			12.51785			475123.00000
-5.25000			12.50415			475224.00000
-0.00244			0.43024			476403.00000
-0.00244			-0.21392			476505.00000
-0.00244			-0.23895			476604.00000
-0.00244			-0.22068			476705.00000
-0.00244			-0.20341			476804.00000
-0.00244			-0.19019			476904.00000
-0.00244			-0.17878			477005.00000
-0.00244			-0.16895			477104.00000
-0.00244			-0.16144			477204.00000
-0.00244			-0.14623			477305.00000
5.00000			-11.32264			478202.00000
5.00000			-11.71741			478303.00000
5.00000			-11.81599			478403.00000
5.00000			-11.78563			478504.00000
5.00000			-11.75418			478603.00000
5.00000			-11.71007			478703.00000
5.00000			-11.69308			478804.00000
5.00000			-11.67863			478903.00000
5.00000			-11.66664			479003.00000
5.00000			-11.65450			479104.00000
-5.00000			11.27381			481049.00000
-5.00000			11.81726			481150.00000
-5.00000			12.00967			481249.00000
-5.00000			11.96907			481349.00000
-5.00000			11.94243			481450.00000
-5.00000			11.92195			481549.00000
-5.00000			11.90367			481649.00000
-5.00000			11.88789			481750.00000
-5.00000			11.87276			481849.00000
-5.00000			11.85918			481949.00000
-0.00244			0.09044			483119.00000
-0.00244			-0.16458			483219.00000
-0.00244			-0.22910			483320.00000
-0.00244			-0.21724			483419.00000
-0.00244			-0.19974			483519.00000
-0.00244			-0.18466			483620.00000
-0.00244			-0.16528			483719.00000
-0.00244			-0.15747			483819.00000
-0.00244			-0.15043			483920.00000
-0.00244			-0.14319			484019.00000
4.75000			-10.55841			484906.00000
4.75000			-11.01996			485006.00000
4.75000			-11.16625			485106.00000
4.75000			-11.12646			485207.00000
4.75000			-11.10424			485306.00000
4.75000			-11.08574			485406.00000
4.75000			-11.06858			485506.00000
4.75000			-11.05292			485606.00000
4.75000			-11.04010			485707.00000
4.75000			-11.02783			485806.00000
-4.75000			10.73507			487722.00000
-4.75000			11.21022			487823.00000
-4.75000			11.36508			487923.00000
-4.75000			11.33009			488024.00000
-4.75000			11.30556			488123.00000
-4.75000			11.28490			488224.00000
-4.75000			11.26811			488323.00000
-4.75000			11.25403			488423.00000
-4.75000			11.23966			488524.00000
-4.75000			11.22580			488623.00000
-0.00244			0.47579			489773.00000
-0.00244			-0.18559			489874.00000
-0.00244			-0.21394			489975.00000
-0.00244			-0.19813			490074.00000
-0.00244			-0.18348			490174.00000
-0.00244			-0.17084			490275.00000
-0.00244			-0.15965			490374.00000
-0.00244			-0.15083			490473.00000
-0.00244			-0.13583			490575.00000
-0.00244			-0.13110			490674.00000
4.50000			-9.53637			491530.00000
4.50000			-10.49932			491630.00000
4.50000			-10.52862			491731.00000
4.50000			-10.49236			491830.00000
4.50000			-10.46815			491930.00000
4.50000			-10.44814			492031.00000
4.50000			-10.43128			492130.00000
4.50000			-10.41602			492230.00000
4.50000			-10.39026			492331.00000
4.50000			-10.37917			492430.00000
-4.50000			10.19610			494291.00000
-4.50000			10.62450			494391.00000
-4.50000			10.74093			494491.00000
-4.50000			10.71652			494592.00000
-4.50000			10.68573			494691.00000
-4.50000			10.64461			494791.00000
-4.50000			10.62862			494892.00000
-4.50000			10.61530			494991.00000
-4.50000			10.60110			495091.00000
-4.50000			10.58861			495192.00000
-0.00244			0.21501			496316.00000
-0.00244			-0.10649			496418.00000
-0.00244			-0.19894			496517.00000
-0.00244			-0.19519			496617.00000
-0.00244			-0.17886			496718.00000
-0.00244			-0.15216			496817.00000
-0.00244			-0.14304			496917.00000
-0.00244			-0.13502			497018.00000
-0.00244			-0.12703			497117.00000
-0.00244			-0.12074			497216.00000
4.25000			-9.44063			498067.00000
4.25000			-9.79936			498168.00000
4.25000			-9.88977			498267.00000
4.25000			-9.86994			498367.00000
4.25000			-9.84402			498468.00000
4.25000			-9.82417			498567.00000
4.25000			-9.79295			498667.00000
4.25000			-9.78033			498768.00000
4.25000			-9.76925			498867.00000
4.25000			-9.75867			498967.00000
-4.25000			9.57911			500804.00000
-4.25000			9.98228			500905.00000
-4.25000			10.09785			501004.00000
-4.25000			10.08246			501104.00000
-4.25000			10.05479			501205.00000
-4.25000			10.01636			501304.00000
-4.25000			10.00055			501404.00000
-4.25000			9.98816			501505.00000
-4.25000			9.97506			501604.00000
-4.25000			9.96315			501704.00000
-0.00244			0.16733			502804.00000
-0.00244			-0.11795			502905.00000
-0.00244			-0.18924			503005.00000
-0.00244			-0.17979			503105.00000
-0.00244			-0.16556			503206.00000
-0.00244			-0.15266			503305.00000
-0.00244			-0.13462			503405.00000
-0.00244			-0.12788			503506.00000
-0.00244			-0.12125			503605.00000
-0.00244			-0.11406			503705.00000
4.00000			-8.45333			504525.00000
4.00000			-9.02854			504625.00000
4.00000			-9.25385			504725.00000
4.00000			-9.22269			504826.00000
4.00000			-9.19971			504925.00000
4.00000			-9.18141			505025.00000
4.00000			-9.16671			505126.00000
4.00000			-9.15286			505225.00000
4.00000			-9.14070			505325.00000
4.00000			-9.12134			505426.00000
-4.00000			8.99497			507206.00000
-4.00000			9.38130			507307.00000
-4.00000			9.47870			507406.00000
-4.00000			9.44987			507506.00000
-4.00000			9.42244			507607.00000
-4.00000			9.40402			507706.00000
-4.00000			9.37268			507806.00000
-4.00000			9.36046			507907.00000
-4.00000			9.34882			508006.00000
-4.00000			9.33759			508107.00000
-0.00244			0.51507			509189.00000
-0.00244			0.04075			509290.00000
-0.00244			-0.17111			509391.00000
-0.00244			-0.15608			509490.00000
-0.00244			-0.14367			509590.00000
-0.00244			-0.13228			509691.00000
-0.00244			-0.12353			509790.00000
-0.00244			-0.11645			509890.00000
-0.00244			-0.10918			509991.00000
-0.00244			-0.09973			510090.00000
3.75000			-8.22907			510897.00000
3.75000			-8.56535			510997.00000
3.75000			-8.64559			511098.00000
3.75000			-8.62394			511197.00000
3.75000			-8.60084			511297.00000
3.75000			-8.58355			511398.00000
3.75000			-8.55502			511497.00000
3.75000			-8.54334			511597.00000
3.75000			-8.53346			511698.00000
3.75000			-8.52418			511797.00000
-3.75000			8.31681			513554.00000
-3.75000			8.72955			513655.00000
-3.75000			8.84826			513754.00000
-3.75000			8.83320			513854.00000
-3.75000			8.78799			513955.00000
-3.75000			8.77182			514054.00000
-3.75000			8.75762			514154.00000
-3.75000			8.74365			514255.00000
-3.75000			8.73289			514354.00000
-3.75000			8.72419			514454.00000
-0.00244			0.53096			515524.00000
-0.00244			-0.13371			515626.00000
-0.00244			-0.16227			515725.00000
-0.00244			-0.14759			515825.00000
-0.00244			-0.13537			515926.00000
-0.00244			-0.12481			516025.00000
-0.00244			-0.11617			516125.00000
-0.00244			-0.10951			516226.00000
-0.00244			-0.10239			516325.00000
-0.00244			-0.09229			516426.00000
3.50000			-7.06799			517207.00000
3.50000			-7.97936			517308.00000
3.50000			-8.01859			517409.00000
3.50000			-7.98911			517508.00000
3.50000			-7.96827			517608.00000
3.50000			-7.95239			517709.00000
3.50000			-7.93836			517808.00000
3.50000			-7.92652			517908.00000
3.50000			-7.90619			518009.00000
3.50000			-7.89809			518108.00000
-3.50000			7.56492			519811.00000
-3.50000			8.05231			519911.00000
-3.50000			8.21941			520012.00000
-3.50000			8.18929			520111.00000
-3.50000			8.16997			520211.00000
-3.50000			8.15411			520312.00000
-3.50000			8.13990			520411.00000
-3.50000			8.12797			520511.00000
-3.50000			8.11758			520612.00000
-3.50000			8.10829			520711.00000
-0.00244			0.47523			521745.00000
-0.00244			0.02680			521847.00000
-0.00244			-0.13107			521946.00000
-0.00244			-0.12929			522046.00000
-0.00244			-0.11956			522147.00000
-0.00244			-0.11021			522246.00000
-0.00244			-0.10139			522346.00000
-0.00244			-0.09455			522447.00000
-0.00244			-0.08902			522546.00000
-0.00244			-0.08432			522646.00000
3.25000			-6.80726			523405.00000
3.25000			-7.26854			523505.00000
3.25000			-7.41467			523606.00000
3.25000			-7.41030			523705.00000
3.25000			-7.37109			523805.00000
3.25000			-7.35576			523906.00000
3.25000			-7.34223			524005.00000
3.25000			-7.33221			524106.00000
3.25000			-7.32311			524205.00000
3.25000			-7.31368			524305.00000
-3.25000			6.87345			525971.00000
-3.25000			7.41069			526073.00000
-3.25000			7.60496			526172.00000
-3.25000			7.58678			526272.00000
-3.25000			7.56826			526373.00000
-3.25000			7.55267			526472.00000
-3.25000			7.54031			526572.00000
-3.25000			7.52958			526673.00000
-3.25000			7.52025			526772.00000
-3.25000			7.51080			526872.00000
-0.00244			0.41963			527894.00000
-0.00244			0.01659			527996.00000
-0.00244			-0.11931			528095.00000
-0.00244			-0.12690			528195.00000
-0.00244			-0.10121			528296.00000
-0.00244			-0.09448			528395.00000
-0.00244			-0.08709			528495.00000
-0.00244			-0.08156			528596.00000
-0.00244			-0.07615			528695.00000
-0.00244			-0.07223			528795.00000
3.00000			-6.39887			529522.00000
3.00000			-6.74158			529623.00000
3.00000			-6.80578			529723.00000
3.00000			-6.77881			529824.00000
3.00000			-6.75797			529923.00000
3.00000			-6.74392			530023.00000
3.00000			-6.73050			530124.00000
3.00000			-6.70838			530223.00000
3.00000			-6.70011			530323.00000
3.00000			-6.69214			530424.00000
-3.00000			6.39382			532015.00000
-3.00000			6.86357			532116.00000
-3.00000			7.00948			532217.00000
-3.00000			6.99697			532316.00000
-3.00000			6.97241			532416.00000
-3.00000			6.94177			532517.00000
-3.00000			6.92958			532616.00000
-3.00000			6.91819			532716.00000
-3.00000			6.90841			532817.00000
-3.00000			6.90002			532916.00000
-0.00244			0.76024			533908.00000
-0.00244			-0.06834			534009.00000
-0.00244			-0.11494			534108.00000
-0.00244			-0.10340			534208.00000
-0.00244			-0.09214			534309.00000
-0.00244			-0.08385			534408.00000
-0.00244			-0.07477			534507.00000
-0.00244			-0.06811			534609.00000
-0.00244			-0.05760			534708.00000
-0.00244			-0.05298			534808.00000
2.75000			-5.73183			535518.00000
2.75000			-6.11580			535619.00000
2.75000			-6.21458			535720.00000
2.75000			-6.19646			535819.00000
2.75000			-6.17537			535919.00000
2.75000			-6.16119			536020.00000
2.75000			-6.13892			536119.00000
2.75000			-6.12889			536219.00000
2.75000			-6.11977			536320.00000
2.75000			-6.11240			536419.00000
-2.75000			5.90105			537987.00000
-2.75000			6.30766			538088.00000
-2.75000			6.42188			538189.00000
-2.75000			6.40775			538288.00000
-2.75000			6.38656			538388.00000
-2.75000			6.35876			538489.00000
-2.75000			6.34748			538588.00000
-2.75000			6.33785			538688.00000
-2.75000			6.32903			538789.00000
-2.75000			6.32018			538888.00000
-0.00244			0.54415			539862.00000
-0.00244			0.09026			539962.00000
-0.00244			-0.07336			540062.00000
-0.00244			-0.07736			540163.00000
-0.00244			-0.06738			540262.00000
-0.00244			-0.05984			540362.00000
-0.00244			-0.05313			540462.00000
-0.00244			-0.04743			540562.00000
-0.00244			-0.04169			540663.00000
-0.00244			-0.03780			540762.00000
2.50000			-4.84271			541453.00000
2.50000			-5.39294			541554.00000
2.50000			-5.60568			541655.00000
2.50000			-5.58022			541754.00000
2.50000			-5.56443			541854.00000
2.50000			-5.55337			541955.00000
2.50000			-5.54257			542054.00000
2.50000			-5.53337			542155.00000
2.50000			-5.52578			542254.00000
2.50000			-5.51899			542354.00000
-2.50000			5.37058			543874.00000
-2.50000			5.73486			543974.00000
-2.50000			5.82421			544075.00000
-2.50000			5.80368			544174.00000
-2.50000			5.78430			544274.00000
-2.50000			5.77078			544375.00000
-2.50000			5.74856			544474.00000
-2.50000			5.73966			544574.00000
-2.50000			5.73230			544675.00000
-2.50000			5.72350			544774.00000
-0.00244			0.36097			545716.00000
-0.00244			0.01453			545817.00000
-0.00244			-0.07967			545918.00000
-0.00244			-0.07683			546017.00000
-0.00244			-0.06607			546117.00000
-0.00244			-0.05738			546218.00000
-0.00244			-0.04562			546317.00000
-0.00244			-0.03973			546417.00000
-0.00244			-0.03576			546518.00000
-0.00244			-0.03325			546617.00000
2.25000			-4.03726			547271.00000
2.25000			-4.99045			547373.00000
2.25000			-5.03348			547472.00000
2.25000			-5.01114			547573.00000
2.25000			-4.99535			547672.00000
2.25000			-4.98449			547772.00000
2.25000			-4.97472			547873.00000
2.25000			-4.96680			547972.00000
2.25000			-4.95034			548072.00000
2.25000			-4.94358			548173.00000
-2.25000			4.50646			549612.00000
-2.25000			5.03575			549713.00000
-2.25000			5.22145			549812.00000
-2.25000			5.22809			549912.00000
-2.25000			5.19438			550013.00000
-2.25000			5.18302			550112.00000
-2.25000			5.17201			550212.00000
-2.25000			5.16216			550313.00000
-2.25000			5.15517			550412.00000
-2.25000			5.14886			550512.00000
-0.00244			0.35310			551425.00000
-0.00244			0.01521			551526.00000
-0.00244			-0.06806			551627.00000
-0.00244			-0.06268			551726.00000
-0.00244			-0.05127			551826.00000
-0.00244			-0.04461			551927.00000
-0.00244			-0.03833			552026.00000
-0.00244			-0.03053			552126.00000
-0.00244			-0.02583			552227.00000
-0.00244			-0.02259			552326.00000
2.00000			-3.76934			552956.00000
2.00000			-4.27282			553057.00000
2.00000			-4.44085			553157.00000
2.00000			-4.43861			553258.00000
2.00000			-4.40611			553357.00000
2.00000			-4.39684			553457.00000
2.00000			-4.38834			553558.00000
2.00000			-4.38002			553657.00000
2.00000			-4.37326			553757.00000
2.00000			-4.36645			553858.00000
-2.00000			3.82463			555267.00000
-2.00000			4.40263			555367.00000
-2.00000			4.64860			555468.00000
-2.00000			4.62704			555567.00000
-2.00000			4.61346			555667.00000
-2.00000			4.60300			555768.00000
-2.00000			4.59413			555867.00000
-2.00000			4.58591			555967.00000
-2.00000			4.57855			556068.00000
-2.00000			4.56696			556167.00000
-0.00244			0.38171			557056.00000
-0.00244			0.04055			557156.00000
-0.00244			-0.04710			557256.00000
-0.00244			-0.04722			557357.00000
-0.00244			-0.03812			557456.00000
-0.00244			-0.02955			557557.00000
-0.00244			-0.01869			557656.00000
-0.00244			-0.01400			557756.00000
-0.00244			-0.01060			557857.00000
-0.00244			-0.00711			557956.00000
1.75000			-3.36655			558550.00000
1.75000			-3.76638			558650.00000
1.75000			-3.86493			558750.00000
1.75000			-3.85003			558851.00000
1.75000			-3.83346			558950.00000
1.75000			-3.82336			559051.00000
1.75000			-3.80971			559150.00000
1.75000			-3.80237			559250.00000
1.75000			-3.79594			559351.00000
1.75000			-3.79058			559450.00000
-1.75000			3.28952			560786.00000
-1.75000			3.85547			560887.00000
-1.75000			4.06738			560986.00000
-1.75000			4.06441			561086.00000
-1.75000			4.05205			561187.00000
-1.75000			4.04207			561286.00000
-1.75000			4.03307			561386.00000
-1.75000			4.02432			561487.00000
-1.75000			4.01854			561586.00000
-1.75000			4.01251			561686.00000
-0.00244			0.69717			562537.00000
-0.00244			0.17394			562639.00000
-0.00244			-0.01203			562738.00000
-0.00244			-0.03071			562838.00000
-0.00244			-0.01495			562939.00000
-0.00244			-0.00867			563038.00000
-0.00244			-0.00535			563138.00000
-0.00244			-0.00208			563239.00000
-0.00244			0.00254			563338.00000
-0.00244			0.00528			563438.00000
1.50000			-2.81776			563995.00000
1.50000			-3.20594			564096.00000
1.50000			-3.29399			564195.00000
1.50000			-3.27584			564295.00000
1.50000			-3.26194			564396.00000
1.50000			-3.25257			564495.00000
1.50000			-3.24500			564595.00000
1.50000			-3.23387			564696.00000
1.50000			-3.22854			564795.00000
1.50000			-3.22399			564896.00000
-1.50000			2.65703			566158.00000
-1.50000			3.25381			566259.00000
-1.50000			3.51277			566360.00000
-1.50000			3.49385			566459.00000
-1.50000			3.48161			566560.00000
-1.50000			3.47334			566659.00000
-1.50000			3.46620			566759.00000
-1.50000			3.45946			566860.00000
-1.50000			3.45456			566959.00000
-1.50000			3.44898			567059.00000
-0.00244			0.55024			567879.00000
-0.00244			0.12010			567981.00000
-0.00244			-0.00947			568080.00000
-0.00244			-0.01590			568181.00000
-0.00244			-0.00877			568280.00000
-0.00244			0.00116			568380.00000
-0.00244			0.00626			568481.00000
-0.00244			0.00986			568580.00000
-0.00244			0.01212			568680.00000
-0.00244			0.01365			568781.00000
1.25000			-1.99056			569312.00000
1.25000			-2.52996			569413.00000
1.25000			-2.72109			569514.00000
1.25000			-2.71671			569613.00000
1.25000			-2.70804			569713.00000
1.25000			-2.70095			569814.00000
1.25000			-2.69480			569913.00000
1.25000			-2.69005			570013.00000
1.25000			-2.68494			570114.00000
1.25000			-2.67959			570213.00000
-1.25000			2.21068			571421.00000
-1.25000			2.74518			571523.00000
-1.25000			2.93510			571622.00000
-1.25000			2.93309			571723.00000
-1.25000			2.92137			571822.00000
-1.25000			2.91371			571922.00000
-1.25000			2.90891			572023.00000
-1.25000			2.90290			572122.00000
-1.25000			2.89707			572222.00000
-1.25000			2.89282			572323.00000
-0.00244			0.96265			573112.00000
-0.00244			0.31125			573212.00000
-0.00244			0.00192			573313.00000
-0.00244			0.00586			573412.00000
-0.00244			0.01199			573512.00000
-0.00244			0.01634			573613.00000
-0.00244			0.02011			573712.00000
-0.00244			0.02315			573813.00000
-0.00244			0.02660			573912.00000
-0.00244			0.03090			574012.00000
1.00000			-1.34565			574509.00000
1.00000			-1.92888			574609.00000
1.00000			-2.16261			574710.00000
1.00000			-2.14466			574809.00000
1.00000			-2.13609			574909.00000
1.00000			-2.13016			575010.00000
1.00000			-2.12499			575109.00000
1.00000			-2.12184			575209.00000
1.00000			-2.11815			575310.00000
1.00000			-2.11327			575409.00000
-1.00000			1.55649			576526.00000
-1.00000			2.14216			576626.00000
-1.00000			2.36732			576727.00000
-1.00000			2.37345			576826.00000
-1.00000			2.36529			576926.00000
-1.00000			2.35830			577026.00000
-1.00000			2.35400			577126.00000
-1.00000			2.34948			577227.00000
-1.00000			2.34490			577326.00000
-1.00000			2.34166			577426.00000
-0.00244			0.71306			578174.00000
-0.00244			0.20111			578274.00000
-0.00244			0.03959			578374.00000
-0.00244			0.02481			578475.00000
-0.00244			0.02906			578574.00000
-0.00244			0.03841			578674.00000
-0.00244			0.04125			578775.00000
-0.00244			0.04203			578874.00000
-0.00244			0.04359			578974.00000
-0.00244			0.04588			579075.00000
0.75000			-0.72084			579521.00000
0.75000			-1.32778			579623.00000
0.75000			-1.61799			579722.00000
0.75000			-1.60557			579822.00000
0.75000			-1.59959			579923.00000
0.75000			-1.59542			580022.00000
0.75000			-1.59016			580122.00000
0.75000			-1.58639			580223.00000
0.75000			-1.58421			580322.00000
0.75000			-1.57802			580422.00000
-0.75000			0.94594			581447.00000
-0.75000			1.54666			581549.00000
-0.75000			1.80430			581648.00000
-0.75000			1.82541			581749.00000
-0.75000			1.81784			581848.00000
-0.75000			1.81159			581948.00000
-0.75000			1.80834			582049.00000
-0.75000			1.80462			582148.00000
-0.75000			1.80078			582247.00000
-0.75000			1.79726			582349.00000
-0.00244			1.14355			583046.00000
-0.00244			0.44967			583147.00000
-0.00244			0.04836			583248.00000
-0.00244			0.04924			583347.00000
-0.00244			0.05279			583447.00000
-0.00244			0.05714			583548.00000
-0.00244			0.06071			583647.00000
-0.00244			0.06186			583747.00000
-0.00244			0.06249			583848.00000
-0.00244			0.06425			583947.00000
0.50000			-0.33007			584339.00000
0.50000			-0.82334			584441.00000
0.50000			-1.03659			584540.00000
0.50000			-1.04956			584640.00000
0.50000			-1.03412			584741.00000
0.50000			-1.03141			584840.00000
0.50000			-1.02744			584940.00000
0.50000			-1.02470			585041.00000
0.50000			-1.02249			585140.00000
0.50000			-1.02015			585240.00000
-0.50000			0.71708			586156.00000
-0.50000			1.14073			586257.00000
-0.50000			1.26656			586358.00000
-0.50000			1.26223			586457.00000
-0.50000			1.25512			586557.00000
-0.50000			1.25125			586658.00000
-0.50000			1.24519			586757.00000
-0.50000			1.24210			586857.00000
-0.50000			1.23954			586958.00000
-0.50000			1.23733			587057.00000
-0.00244			1.00563			587707.00000
-0.00244			0.14797			587808.00000
-0.00244			0.07672			587907.00000
-0.00244			0.07596			588007.00000
-0.00244			0.07941			588108.00000
-0.00244			0.08303			588207.00000
-0.00244			0.08551			588306.00000
-0.00244			0.08597			588408.00000
-0.00244			0.08697			588507.00000
-0.00244			0.08946			588607.00000
0.25000			0.05545			588933.00000
0.25000			-0.17370			589033.00000
0.25000			-0.49380			589134.00000
0.25000			-0.48711			589233.00000
0.25000			-0.48530			589333.00000
0.25000			-0.48201			589434.00000
0.25000			-0.47899			589533.00000
0.25000			-0.47804			589633.00000
0.25000			-0.47829			589734.00000
0.25000			-0.47570			589833.00000
-0.25000			0.29180			590621.00000
-0.25000			0.58940			590722.00000
-0.25000			0.68551			590821.00000
-0.25000			0.68247			590922.00000
-0.25000			0.67810			591021.00000
-0.25000			0.67541			591121.00000
-0.25000			0.67375			591222.00000
-0.25000			0.67249			591321.00000
-0.25000			0.66870			591421.00000
-0.25000			0.66895			591522.00000
-0.00244			0.63280			592098.00000
-0.00244			0.45196			592198.00000
-0.00244			0.11540			592299.00000
-0.00244			0.11324			592398.00000
-0.00244			0.11339			592498.00000
-0.00244			0.11437			592599.00000
-0.00244			0.11530			592698.00000
-0.00244			0.11575			592798.00000
-0.00244			0.11527			592899.00000
-0.00244			0.11857			592998.00000
