# Acquired on 03/09/2024 13:47:01 
# SPIDER: CNT0771454A-2_PostRodaggio_2024-09-03
# TRACKING MEASUREMENT

  # pos [mm]    force [N]     time [ms]
     0.49072     -0.05861     243.00000
     0.49072     -0.17872     343.00000
     0.49072     -0.25196     443.00000
     0.49072     -0.25212     544.00000
     0.49072     -0.24847     643.00000
     0.49072     -0.24604     743.00000
     0.49072     -0.24385     844.00000
     0.49072     -0.24099     943.00000
     0.49072     -0.23899    1043.00000
     0.49072     -0.23802    1144.00000
    -0.49316      0.28276    1949.00000
    -0.49316      0.41022    2050.00000
    -0.49316      0.45077    2150.00000
    -0.49316      0.44731    2251.00000
    -0.49316      0.44280    2350.00000
    -0.49316      0.43823    2450.00000
    -0.49316      0.43515    2551.00000
    -0.49316      0.43091    2650.00000
    -0.49316      0.42986    2750.00000
    -0.49316      0.42870    2851.00000
    -0.00732      0.26258    3446.00000
    -0.00732      0.09338    3546.00000
    -0.00732      0.03641    3646.00000
    -0.00732      0.03719    3747.00000
    -0.00732      0.03976    3846.00000
    -0.00732      0.04229    3946.00000
    -0.00732      0.04443    4046.00000
    -0.00732      0.04605    4146.00000
    -0.00732      0.04691    4247.00000
    -0.00732      0.04729    4346.00000
     0.98877     -0.13609    4750.00000
     0.98877     -0.48507    4852.00000
     0.98877     -0.50061    4951.00000
     0.98877     -0.48977    5051.00000
     0.98877     -0.48310    5152.00000
     0.98877     -0.47872    5251.00000
     0.98877     -0.47473    5351.00000
     0.98877     -0.47140    5452.00000
     0.98877     -0.46562    5551.00000
     0.98877     -0.46359    5651.00000
    -0.99365      0.40584    6591.00000
    -0.99365      0.63796    6692.00000
    -0.99365      0.79670    6791.00000
    -0.99365      0.78762    6892.00000
    -0.99365      0.78065    6991.00000
    -0.99365      0.77522    7091.00000
    -0.99365      0.77155    7192.00000
    -0.99365      0.76893    7291.00000
    -0.99365      0.76555    7391.00000
    -0.99365      0.75953    7492.00000
    -0.00732      0.43202    8153.00000
    -0.00732      0.14987    8254.00000
    -0.00732      0.03889    8355.00000
    -0.00732      0.03392    8454.00000
    -0.00732      0.03827    8554.00000
    -0.00732      0.04013    8655.00000
    -0.00732      0.04243    8754.00000
    -0.00732      0.04462    8855.00000
    -0.00732      0.04646    8954.00000
    -0.00732      0.04883    9054.00000
     1.49170     -0.58565    9513.00000
     1.49170     -0.73696    9614.00000
     1.49170     -0.75990    9715.00000
     1.49170     -0.74739    9814.00000
     1.49170     -0.73883    9914.00000
     1.49170     -0.73253   10015.00000
     1.49170     -0.72735   10114.00000
     1.49170     -0.71921   10214.00000
     1.49170     -0.71638   10315.00000
     1.49170     -0.71373   10414.00000
    -1.49170      0.85937   11470.00000
    -1.49170      1.08657   11571.00000
    -1.49170      1.14455   11672.00000
    -1.49170      1.13515   11771.00000
    -1.49170      1.12299   11871.00000
    -1.49170      1.11056   11972.00000
    -1.49170      1.10532   12071.00000
    -1.49170      1.10014   12171.00000
    -1.49170      1.09700   12272.00000
    -1.49170      1.09462   12371.00000
    -0.00732      0.43656   13082.00000
    -0.00732      0.13366   13183.00000
    -0.00732      0.02925   13283.00000
    -0.00732      0.02587   13384.00000
    -0.00732      0.03181   13483.00000
    -0.00732      0.03627   13583.00000
    -0.00732      0.03914   13684.00000
    -0.00732      0.04116   13783.00000
    -0.00732      0.04365   13883.00000
    -0.00732      0.04567   13984.00000
     1.99219     -0.70544   14486.00000
     1.99219     -0.96041   14585.00000
     1.99219     -1.04224   14685.00000
     1.99219     -1.03778   14786.00000
     1.99219     -1.01554   14885.00000
     1.99219     -1.00965   14985.00000
     1.99219     -1.00436   15086.00000
     1.99219     -0.99898   15185.00000
     1.99219     -0.99518   15285.00000
     1.99219     -0.99207   15386.00000
    -1.99463      1.02244   16526.00000
    -1.99463      1.36416   16628.00000
    -1.99463      1.50690   16727.00000
    -1.99463      1.49029   16827.00000
    -1.99463      1.47903   16928.00000
    -1.99463      1.47100   17027.00000
    -1.99463      1.46395   17127.00000
    -1.99463      1.45833   17228.00000
    -1.99463      1.45239   17327.00000
    -1.99463      1.44491   17427.00000
    -0.00732      0.38879   18187.00000
    -0.00732      0.10848   18288.00000
    -0.00732      0.01720   18387.00000
    -0.00732      0.02052   18487.00000
    -0.00732      0.02641   18588.00000
    -0.00732      0.03108   18687.00000
    -0.00732      0.03578   18787.00000
    -0.00732      0.03835   18888.00000
    -0.00732      0.04000   18987.00000
    -0.00732      0.04254   19087.00000
     2.49512     -0.80677   19620.00000
     2.49512     -1.33854   19720.00000
     2.49512     -1.35880   19822.00000
     2.49512     -1.34302   19921.00000
     2.49512     -1.33198   20021.00000
     2.49512     -1.32174   20122.00000
     2.49512     -1.31458   20221.00000
     2.49512     -1.30880   20321.00000
     2.49512     -1.30004   20422.00000
     2.49512     -1.29521   20521.00000
    -2.49268      1.63942   21742.00000
    -2.49268      1.85908   21842.00000
    -2.49268      1.89474   21942.00000
    -2.49268      1.87650   22043.00000
    -2.49268      1.86216   22142.00000
    -2.49268      1.85170   22242.00000
    -2.49268      1.84254   22343.00000
    -2.49268      1.82858   22442.00000
    -2.49268      1.82220   22542.00000
    -2.49268      1.81799   22643.00000
    -0.00732      0.25094   23437.00000
    -0.00732      0.05215   23539.00000
    -0.00732      0.00123   23638.00000
    -0.00732      0.00615   23738.00000
    -0.00732      0.01585   23839.00000
    -0.00732      0.02681   23938.00000
    -0.00732      0.03117   24038.00000
    -0.00732      0.03441   24139.00000
    -0.00732      0.03700   24238.00000
    -0.00732      0.04070   24338.00000
     2.99072     -1.47005   24914.00000
     2.99072     -1.66807   25014.00000
     2.99072     -1.70011   25115.00000
     2.99072     -1.68301   25214.00000
     2.99072     -1.66832   25314.00000
     2.99072     -1.65729   25415.00000
     2.99072     -1.64919   25514.00000
     2.99072     -1.63649   25614.00000
     2.99072     -1.63155   25715.00000
     2.99072     -1.62558   25814.00000
    -2.99316      1.66478   27090.00000
    -2.99316      2.28338   27190.00000
    -2.99316      2.30016   27291.00000
    -2.99316      2.28000   27390.00000
    -2.99316      2.26361   27490.00000
    -2.99316      2.25072   27591.00000
    -2.99316      2.24186   27690.00000
    -2.99316      2.23256   27790.00000
    -2.99316      2.22062   27891.00000
    -2.99316      2.21425   27990.00000
    -0.00732      0.29902   28823.00000
    -0.00732      0.06882   28924.00000
    -0.00732     -0.00328   29024.00000
    -0.00732      0.00666   29125.00000
    -0.00732      0.01471   29224.00000
    -0.00732      0.02176   29324.00000
    -0.00732      0.02587   29425.00000
    -0.00732      0.02941   29524.00000
    -0.00732      0.03279   29624.00000
    -0.00732      0.03589   29725.00000
     3.49365     -1.58695   30335.00000
     3.49365     -1.93915   30436.00000
     3.49365     -2.06193   30537.00000
     3.49365     -2.03953   30636.00000
     3.49365     -2.02649   30736.00000
     3.49365     -2.01530   30837.00000
     3.49365     -2.00544   30936.00000
     3.49365     -1.99831   31036.00000
     3.49365     -1.99091   31137.00000
     3.49365     -1.97986   31236.00000
    -3.49365      2.33006   32597.00000
    -3.49365      2.65011   32697.00000
    -3.49365      2.73367   32798.00000
    -3.49365      2.71757   32897.00000
    -3.49365      2.68145   32997.00000
    -3.49365      2.66919   33098.00000
    -3.49365      2.65897   33197.00000
    -3.49365      2.64979   33297.00000
    -3.49365      2.64214   33398.00000
    -3.49365      2.63474   33497.00000
    -0.00732      0.27349   34373.00000
    -0.00732      0.05518   34474.00000
    -0.00732     -0.01265   34574.00000
    -0.00732     -0.00161   34675.00000
    -0.00732      0.00707   34774.00000
    -0.00732      0.01315   34874.00000
    -0.00732      0.01793   34975.00000
    -0.00732      0.02282   35074.00000
    -0.00732      0.02730   35174.00000
    -0.00732      0.03014   35275.00000
     3.99170     -2.19185   35911.00000
     3.99170     -2.42450   36011.00000
     3.99170     -2.46165   36111.00000
     3.99170     -2.43755   36212.00000
     3.99170     -2.41905   36311.00000
     3.99170     -2.40586   36411.00000
     3.99170     -2.38684   36512.00000
     3.99170     -2.37814   36611.00000
     3.99170     -2.37099   36711.00000
     3.99170     -2.36358   36812.00000
    -3.99170      2.79208   38215.00000
    -3.99170      3.10932   38316.00000
    -3.99170      3.18483   38416.00000
    -3.99170      3.16416   38517.00000
    -3.99170      3.14041   38616.00000
    -3.99170      3.10924   38716.00000
    -3.99170      3.09816   38817.00000
    -3.99170      3.08809   38916.00000
    -3.99170      3.07890   39016.00000
    -3.99170      3.07136   39117.00000
    -0.00732      0.32922   40016.00000
    -0.00732     -0.01652   40117.00000
    -0.00732     -0.02292   40218.00000
    -0.00732     -0.01041   40317.00000
    -0.00732     -0.00152   40417.00000
    -0.00732      0.00591   40518.00000
    -0.00732      0.01274   40617.00000
    -0.00732      0.01723   40717.00000
    -0.00732      0.02590   40818.00000
    -0.00732      0.02900   40917.00000
     4.49463     -2.37161   41597.00000
     4.49463     -2.87453   41697.00000
     4.49463     -2.87099   41798.00000
     4.49463     -2.84710   41897.00000
     4.49463     -2.82906   41997.00000
     4.49463     -2.81509   42098.00000
     4.49463     -2.80429   42197.00000
     4.49463     -2.79486   42297.00000
     4.49463     -2.77692   42398.00000
     4.49463     -2.76946   42497.00000
    -4.49463      3.06364   43975.00000
    -4.49463      3.64112   44075.00000
    -4.49463      3.64028   44175.00000
    -4.49463      3.61094   44276.00000
    -4.49463      3.58990   44375.00000
    -4.49463      3.57361   44475.00000
    -4.49463      3.56034   44576.00000
    -4.49463      3.54886   44675.00000
    -4.49463      3.52881   44775.00000
    -4.49463      3.52166   44876.00000
    -0.00732      0.24572   45793.00000
    -0.00732      0.03600   45895.00000
    -0.00732     -0.03040   45994.00000
    -0.00732     -0.01598   46094.00000
    -0.00732     -0.00649   46195.00000
    -0.00732      0.00199   46294.00000
    -0.00732      0.00677   46394.00000
    -0.00732      0.01288   46495.00000
    -0.00732      0.01830   46594.00000
    -0.00732      0.02236   46693.00000
     4.99512     -2.79653   47398.00000
     4.99512     -3.18790   47498.00000
     4.99512     -3.31055   47599.00000
     4.99512     -3.28267   47698.00000
     4.99512     -3.26371   47798.00000
     4.99512     -3.24839   47899.00000
     4.99512     -3.23629   47998.00000
     4.99512     -3.22491   48098.00000
     4.99512     -3.21524   48199.00000
     4.99512     -3.19936   48298.00000
    -4.99512      3.75607   49830.00000
    -4.99512      4.07301   49931.00000
    -4.99512      4.14031   50032.00000
    -4.99512      4.11370   50131.00000
    -4.99512      4.06656   50231.00000
    -4.99512      4.05062   50332.00000
    -4.99512      4.03660   50431.00000
    -4.99512      4.02401   50531.00000
    -4.99512      4.01339   50632.00000
    -4.99512      4.00469   50731.00000
    -0.00732      0.19750   51698.00000
    -0.00732      0.01309   51799.00000
    -0.00732     -0.03718   51899.00000
    -0.00732     -0.02414   52000.00000
    -0.00732     -0.01276   52099.00000
    -0.00732     -0.00358   52199.00000
    -0.00732      0.00210   52300.00000
    -0.00732      0.00712   52399.00000
    -0.00732      0.01215   52498.00000
    -0.00732      0.01887   52600.00000
     5.49072     -3.51741   53321.00000
     5.49072     -3.75077   53421.00000
     5.49072     -3.77738   53521.00000
     5.49072     -3.74418   53622.00000
     5.49072     -3.72000   53721.00000
     5.49072     -3.70225   53821.00000
     5.49072     -3.67548   53922.00000
     5.49072     -3.66483   54021.00000
     5.49072     -3.65376   54121.00000
     5.49072     -3.64557   54222.00000
    -5.49316      4.33071   55783.00000
    -5.49316      4.61286   55884.00000
    -5.49316      4.65482   55983.00000
    -5.49316      4.62137   56083.00000
    -5.49316      4.59317   56184.00000
    -5.49316      4.57234   56283.00000
    -5.49316      4.53989   56383.00000
    -5.49316      4.52682   56484.00000
    -5.49316      4.51563   56583.00000
    -5.49316      4.50585   56684.00000
    -0.00732      0.16927   57674.00000
    -0.00732     -0.00012   57775.00000
    -0.00732     -0.04229   57875.00000
    -0.00732     -0.02962   57976.00000
    -0.00732     -0.01798   58075.00000
    -0.00732     -0.01009   58175.00000
    -0.00732     -0.00401   58276.00000
    -0.00732      0.00234   58375.00000
    -0.00732      0.00742   58476.00000
    -0.00732      0.01190   58575.00000
     5.99121     -3.87968   59327.00000
     5.99121     -4.19725   59429.00000
     5.99121     -4.26736   59528.00000
     5.99121     -4.23867   59629.00000
     5.99121     -4.18796   59728.00000
     5.99121     -4.17145   59828.00000
     5.99121     -4.15640   59929.00000
     5.99121     -4.14398   60028.00000
     5.99121     -4.13377   60128.00000
     5.99121     -4.12361   60229.00000
    -5.99365      4.78676   61875.00000
    -5.99365      5.13220   61976.00000
    -5.99365      5.20685   62075.00000
    -5.99365      5.17526   62175.00000
    -5.99365      5.11856   62276.00000
    -5.99365      5.09841   62375.00000
    -5.99365      5.08325   62475.00000
    -5.99365      5.06810   62576.00000
    -5.99365      5.05507   62675.00000
    -5.99365      5.04373   62775.00000
    -0.00732      0.06172   63768.00000
    -0.00732     -0.04602   63868.00000
    -0.00732     -0.05809   63968.00000
    -0.00732     -0.04380   64069.00000
    -0.00732     -0.03143   64168.00000
    -0.00732     -0.02108   64268.00000
    -0.00732     -0.01306   64369.00000
    -0.00732     -0.00622   64468.00000
    -0.00732      0.00404   64568.00000
    -0.00732      0.00907   64669.00000
     6.48926     -4.57487   65457.00000
     6.48926     -4.76595   65558.00000
     6.48926     -4.77257   65657.00000
     6.48926     -4.73640   65757.00000
     6.48926     -4.70884   65858.00000
     6.48926     -4.68701   65957.00000
     6.48926     -4.65535   66057.00000
     6.48926     -4.64417   66158.00000
     6.48926     -4.63225   66257.00000
     6.48926     -4.62164   66357.00000
    -6.49414      5.33936   68042.00000
    -6.49414      5.71003   68143.00000
    -6.49414      5.79521   68243.00000
    -6.49414      5.72659   68344.00000
    -6.49414      5.69934   68443.00000
    -6.49414      5.67745   68543.00000
    -6.49414      5.65976   68644.00000
    -6.49414      5.64455   68743.00000
    -6.49414      5.62991   68844.00000
    -6.49414      5.61810   68943.00000
    -0.00732      0.12864   69971.00000
    -0.00732     -0.02703   70072.00000
    -0.00732     -0.06720   70173.00000
    -0.00732     -0.05766   70272.00000
    -0.00732     -0.03184   70372.00000
    -0.00732     -0.02254   70473.00000
    -0.00732     -0.01533   70572.00000
    -0.00732     -0.00760   70672.00000
    -0.00732     -0.00215   70773.00000
    -0.00732      0.00215   70872.00000
     6.99219     -4.71940   71662.00000
     6.99219     -5.18342   71762.00000
     6.99219     -5.31023   71862.00000
     6.99219     -5.27106   71963.00000
     6.99219     -5.24491   72062.00000
     6.99219     -5.22270   72162.00000
     6.99219     -5.20373   72263.00000
     6.99219     -5.18920   72362.00000
     6.99219     -5.17548   72462.00000
     6.99219     -5.15278   72563.00000
    -6.99463      5.81415   74289.00000
    -6.99463      6.28903   74390.00000
    -6.99463      6.41851   74489.00000
    -6.99463      6.34865   74589.00000
    -6.99463      6.31958   74690.00000
    -6.99463      6.29578   74789.00000
    -6.99463      6.27490   74889.00000
    -6.99463      6.25664   74990.00000
    -6.99463      6.24094   75089.00000
    -6.99463      6.22716   75189.00000
    -0.00732     -0.00352   76254.00000
    -0.00732     -0.07106   76355.00000
    -0.00732     -0.07136   76455.00000
    -0.00732     -0.05499   76555.00000
    -0.00732     -0.04215   76656.00000
    -0.00732     -0.03246   76755.00000
    -0.00732     -0.02330   76855.00000
    -0.00732     -0.01641   76956.00000
    -0.00732     -0.00544   77055.00000
    -0.00732     -0.00034   77155.00000
     7.49512     -5.46149   77968.00000
     7.49512     -5.83349   78069.00000
     7.49512     -5.91229   78168.00000
     7.49512     -5.87436   78268.00000
     7.49512     -5.81044   78369.00000
     7.49512     -5.78716   78468.00000
     7.49512     -5.76863   78568.00000
     7.49512     -5.75333   78669.00000
     7.49512     -5.74012   78768.00000
     7.49512     -5.72678   78868.00000
    -7.49512      6.32239   80638.00000
    -7.49512      6.89547   80738.00000
    -7.49512      7.06539   80839.00000
    -7.49512      7.01809   80938.00000
    -7.49512      6.98470   81038.00000
    -7.49512      6.95833   81139.00000
    -7.49512      6.93513   81238.00000
    -7.49512      6.91554   81338.00000
    -7.49512      6.89820   81439.00000
    -7.49512      6.86924   81538.00000
    -0.00732      0.04467   82620.00000
    -0.00732     -0.06469   82721.00000
    -0.00732     -0.08249   82821.00000
    -0.00732     -0.06914   82921.00000
    -0.00732     -0.05431   83022.00000
    -0.00732     -0.03329   83121.00000
    -0.00732     -0.02557   83222.00000
    -0.00732     -0.01925   83321.00000
    -0.00732     -0.01233   83421.00000
    -0.00732     -0.00752   83522.00000
     7.99316     -6.25371   84352.00000
     7.99316     -6.50417   84452.00000
     7.99316     -6.51138   84553.00000
     7.99316     -6.46286   84652.00000
     7.99316     -6.42818   84752.00000
     7.99316     -6.40087   84853.00000
     7.99316     -6.37871   84952.00000
     7.99316     -6.34181   85052.00000
     7.99316     -6.32719   85153.00000
     7.99316     -6.31274   85252.00000
    -7.99072      6.96066   87057.00000
    -7.99072      7.80048   87159.00000
    -7.99072      7.78279   87258.00000
    -7.99072      7.73265   87358.00000
    -7.99072      7.69534   87459.00000
    -7.99072      7.66573   87558.00000
    -7.99072      7.64082   87658.00000
    -7.99072      7.61867   87758.00000
    -7.99072      7.60006   87858.00000
    -7.99072      7.56907   87959.00000
    -0.00732      0.07920   89059.00000
    -0.00732     -0.05628   89160.00000
    -0.00732     -0.09054   89259.00000
    -0.00732     -0.06288   89359.00000
    -0.00732     -0.05040   89460.00000
    -0.00732     -0.04067   89559.00000
    -0.00732     -0.03243   89659.00000
    -0.00732     -0.02565   89760.00000
    -0.00732     -0.01919   89859.00000
    -0.00732     -0.01349   89959.00000
     8.49365     -6.65427   90809.00000
     8.49365     -7.08171   90911.00000
     8.49365     -7.17161   91010.00000
     8.49365     -7.12515   91110.00000
     8.49365     -7.04775   91211.00000
     8.49365     -7.02049   91310.00000
     8.49365     -6.99923   91410.00000
     8.49365     -6.97970   91511.00000
     8.49365     -6.96189   91610.00000
     8.49365     -6.94566   91710.00000
    -8.49121      7.79308   93553.00000
    -8.49121      8.40074   93654.00000
    -8.49121      8.54791   93754.00000
    -8.49121      8.49348   93855.00000
    -8.49121      8.45506   93954.00000
    -8.49121      8.42456   94054.00000
    -8.49121      8.39768   94155.00000
    -8.49121      8.37526   94254.00000
    -8.49121      8.35603   94354.00000
    -8.49121      8.33687   94455.00000
    -0.00732      0.08449   95580.00000
    -0.00732     -0.05904   95681.00000
    -0.00732     -0.09062   95780.00000
    -0.00732     -0.07290   95880.00000
    -0.00732     -0.05899   95981.00000
    -0.00732     -0.04853   96080.00000
    -0.00732     -0.03891   96180.00000
    -0.00732     -0.03229   96281.00000
    -0.00732     -0.02589   96380.00000
    -0.00732     -0.01460   96480.00000
     8.99170     -7.62223   97367.00000
     8.99170     -7.84170   97467.00000
     8.99170     -7.83552   97568.00000
     8.99170     -7.77865   97667.00000
     8.99170     -7.73856   97767.00000
     8.99170     -7.70633   97868.00000
     8.99170     -7.67961   97967.00000
     8.99170     -7.63722   98067.00000
     8.99170     -7.61837   98168.00000
     8.99170     -7.60299   98267.00000
    -8.99170      9.06804  100189.00000
    -8.99170      9.38123  100291.00000
    -8.99170      9.39917  100390.00000
    -8.99170      9.33747  100490.00000
    -8.99170      9.29195  100591.00000
    -8.99170      9.25647  100690.00000
    -8.99170      9.19899  100790.00000
    -8.99170      9.17586  100891.00000
    -8.99170      9.15595  100990.00000
    -8.99170      9.13782  101090.00000
    -0.00732      0.01136  102217.00000
    -0.00732     -0.09265  102317.00000
    -0.00732     -0.10748  102417.00000
    -0.00732     -0.09148  102518.00000
    -0.00732     -0.07428  102617.00000
    -0.00732     -0.06107  102717.00000
    -0.00732     -0.04264  102818.00000
    -0.00732     -0.03575  102917.00000
    -0.00732     -0.03051  103017.00000
    -0.00732     -0.02484  103118.00000
     9.49463     -7.97111  103997.00000
     9.49463     -8.47616  104098.00000
     9.49463     -8.58943  104197.00000
     9.49463     -8.53727  104297.00000
     9.49463     -8.44404  104398.00000
     9.49463     -8.41219  104497.00000
     9.49463     -8.38514  104598.00000
     9.49463     -8.36226  104697.00000
     9.49463     -8.34227  104797.00000
     9.49463     -8.32355  104898.00000
    -9.49219      9.59195  106806.00000
    -9.49219     10.18035  106907.00000
    -9.49219     10.30707  107006.00000
    -9.49219     10.25029  107106.00000
    -9.49219     10.14733  107207.00000
    -9.49219     10.11256  107306.00000
    -9.49219     10.08295  107406.00000
    -9.49219     10.05510  107507.00000
    -9.49219     10.03036  107606.00000
    -9.49219     10.00999  107706.00000
    -0.00732      0.09030  108863.00000
    -0.00732     -0.06647  108964.00000
    -0.00732     -0.10653  109063.00000
    -0.00732     -0.08878  109164.00000
    -0.00732     -0.07536  109263.00000
    -0.00732     -0.06269  109363.00000
    -0.00732     -0.05223  109464.00000
    -0.00732     -0.04461  109563.00000
    -0.00732     -0.03802  109663.00000
    -0.00732     -0.02740  109764.00000
     9.99512     -8.84538  110674.00000
     9.99512     -9.28116  110774.00000
     9.99512     -9.35599  110875.00000
     9.99512     -9.29613  110974.00000
     9.99512     -9.24166  111074.00000
     9.99512     -9.16748  111175.00000
     9.99512     -9.13919  111274.00000
     9.99512     -9.11472  111374.00000
     9.99512     -9.09257  111475.00000
     9.99512     -9.07160  111574.00000
    -9.99512     10.77325  113558.00000
    -9.99512     11.21114  113657.00000
    -9.99512     11.26031  113757.00000
    -9.99512     11.18942  113858.00000
    -9.99512     11.13039  113957.00000
    -9.99512     11.08552  114057.00000
    -9.99512     11.01725  114158.00000
    -9.99512     10.98967  114257.00000
    -9.99512     10.96600  114357.00000
    -9.99512     10.94334  114458.00000
    -0.00732     -0.07447  115656.00000
    -0.00732     -0.12204  115756.00000
    -0.00732     -0.11647  115856.00000
    -0.00732     -0.09721  115957.00000
    -0.00732     -0.08308  116056.00000
    -0.00732     -0.07120  116156.00000
    -0.00732     -0.06158  116256.00000
    -0.00732     -0.04518  116356.00000
    -0.00732     -0.03853  116456.00000
    -0.00732     -0.03437  116557.00000
    10.48828     -9.93380  117497.00000
    10.48828    -10.16232  117598.00000
    10.48828    -10.13895  117699.00000
    10.48828    -10.06990  117798.00000
    10.48828    -10.01830  117898.00000
    10.48828     -9.97789  117999.00000
    10.48828     -9.94450  118098.00000
    10.48828     -9.89017  118198.00000
    10.48828     -9.86739  118299.00000
    10.48828     -9.84729  118398.00000
   -10.49316     11.18683  120393.00000
   -10.49316     12.29054  120494.00000
   -10.49316     12.26636  120594.00000
   -10.49316     12.19004  120695.00000
   -10.49316     12.13374  120794.00000
   -10.49316     12.08828  120894.00000
   -10.49316     12.05013  120995.00000
   -10.49316     12.01766  121094.00000
   -10.49316     11.96463  121194.00000
   -10.49316     11.94066  121295.00000
    -0.00732      0.04564  122474.00000
    -0.00732     -0.09497  122575.00000
    -0.00732     -0.13314  122675.00000
    -0.00732     -0.10202  122776.00000
    -0.00732     -0.08697  122875.00000
    -0.00732     -0.07538  122975.00000
    -0.00732     -0.06506  123076.00000
    -0.00732     -0.05623  123175.00000
    -0.00732     -0.04964  123274.00000
    -0.00732     -0.04283  123376.00000
    10.98877    -10.32287  124322.00000
    10.98877    -10.91378  124423.00000
    10.98877    -11.05091  124524.00000
    10.98877    -10.91656  124623.00000
    10.98877    -10.86631  124723.00000
    10.98877    -10.82479  124824.00000
    10.98877    -10.78986  124923.00000
    10.98877    -10.75990  125023.00000
    10.98877    -10.73264  125124.00000
    10.98877    -10.70914  125223.00000
   -10.99365     12.99832  127261.00000
   -10.99365     13.40690  127361.00000
   -10.99365     13.41316  127461.00000
   -10.99365     13.32593  127562.00000
   -10.99365     13.26093  127661.00000
   -10.99365     13.20858  127761.00000
   -10.99365     13.16470  127862.00000
   -10.99365     13.09503  127961.00000
   -10.99365     13.06645  128061.00000
   -10.99365     13.04154  128162.00000
    -0.00732     -0.07501  129378.00000
    -0.00732     -0.13622  129479.00000
    -0.00732     -0.13609  129578.00000
    -0.00732     -0.11680  129678.00000
    -0.00732     -0.09962  129779.00000
    -0.00732     -0.08719  129878.00000
    -0.00732     -0.07638  129978.00000
    -0.00732     -0.05869  130079.00000
    -0.00732     -0.05301  130178.00000
    -0.00732     -0.04777  130278.00000
    10.99121    -10.62882  131226.00000
    10.99121    -10.97989  131327.00000
    10.99121    -10.99088  131427.00000
    10.99121    -10.91313  131528.00000
    10.99121    -10.85405  131627.00000
    10.99121    -10.80972  131727.00000
    10.99121    -10.73969  131828.00000
    10.99121    -10.71205  131927.00000
    10.99121    -10.68736  132027.00000
    10.99121    -10.66459  132128.00000
   -10.99365     12.47895  134164.00000
   -10.99365     13.21892  134266.00000
   -10.99365     13.39768  134365.00000
   -10.99365     13.25399  134466.00000
   -10.99365     13.19774  134565.00000
   -10.99365     13.15157  134665.00000
   -10.99365     13.11327  134766.00000
   -10.99365     13.07858  134866.00000
   -10.99365     13.04821  134965.00000
   -10.99365     13.02087  135066.00000
    -0.00732     -0.00323  136282.00000
    -0.00732     -0.11731  136383.00000
    -0.00732     -0.14414  136484.00000
    -0.00732     -0.11223  136583.00000
    -0.00732     -0.09708  136682.00000
    -0.00732     -0.08422  136783.00000
    -0.00732     -0.07441  136883.00000
    -0.00732     -0.06682  136984.00000
    -0.00732     -0.05928  137083.00000
    -0.00732     -0.05266  137183.00000
    10.49072     -9.46160  138125.00000
    10.49072     -9.95795  138226.00000
    10.49072    -10.06339  138325.00000
    10.49072     -9.94206  138425.00000
    10.49072     -9.89789  138526.00000
    10.49072     -9.86124  138625.00000
    10.49072     -9.83065  138725.00000
    10.49072     -9.80413  138826.00000
    10.49072     -9.78076  138925.00000
    10.49072     -9.75993  139025.00000
   -10.49072     11.47181  141020.00000
   -10.49072     12.06264  141121.00000
   -10.49072     12.18840  141220.00000
   -10.49072     12.05637  141320.00000
   -10.49072     12.00661  141421.00000
   -10.49072     11.96552  141520.00000
   -10.49072     11.93102  141620.00000
   -10.49072     11.90063  141721.00000
   -10.49072     11.87367  141820.00000
   -10.49072     11.84995  141920.00000
    -0.00732     -0.03986  143095.00000
    -0.00732     -0.13047  143195.00000
    -0.00732     -0.14019  143295.00000
    -0.00732     -0.12204  143396.00000
    -0.00732     -0.10491  143495.00000
    -0.00732     -0.09159  143596.00000
    -0.00732     -0.07063  143695.00000
    -0.00732     -0.06323  143795.00000
    -0.00732     -0.05688  143896.00000
    -0.00732     -0.05056  143995.00000
     9.99512     -8.43482  144906.00000
     9.99512     -9.03646  145007.00000
     9.99512     -9.18218  145106.00000
     9.99512     -9.12012  145206.00000
     9.99512     -9.07595  145307.00000
     9.99512     -9.04078  145406.00000
     9.99512     -9.01112  145506.00000
     9.99512     -8.98615  145607.00000
     9.99512     -8.96376  145706.00000
     9.99512     -8.92607  145806.00000
    -9.99268     10.33784  147789.00000
    -9.99268     10.96260  147890.00000
    -9.99268     11.11394  147991.00000
    -9.99268     11.05916  148090.00000
    -9.99268     10.94958  148190.00000
    -9.99268     10.91208  148291.00000
    -9.99268     10.87877  148390.00000
    -9.99268     10.85095  148490.00000
    -9.99268     10.82585  148591.00000
    -9.99268     10.80480  148690.00000
    -0.00732     -0.05437  149883.00000
    -0.00732     -0.12790  149984.00000
    -0.00732     -0.13384  150085.00000
    -0.00732     -0.11642  150184.00000
    -0.00732     -0.10008  150284.00000
    -0.00732     -0.07614  150385.00000
    -0.00732     -0.06793  150484.00000
    -0.00732     -0.06115  150584.00000
    -0.00732     -0.05388  150685.00000
    -0.00732     -0.04772  150784.00000
     9.49463     -7.70020  151664.00000
     9.49463     -8.27208  151765.00000
     9.49463     -8.43056  151865.00000
     9.49463     -8.32998  151966.00000
     9.49463     -8.29018  152065.00000
     9.49463     -8.25798  152165.00000
     9.49463     -8.23194  152266.00000
     9.49463     -8.20819  152365.00000
     9.49463     -8.18801  152465.00000
     9.49463     -8.17005  152566.00000
    -9.49463      9.25677  154474.00000
    -9.49463      9.93958  154575.00000
    -9.49463     10.12969  154675.00000
    -9.49463     10.02287  154776.00000
    -9.49463      9.97832  154875.00000
    -9.49463      9.94369  154975.00000
    -9.49463      9.91403  155076.00000
    -9.49463      9.88753  155175.00000
    -9.49463      9.86313  155275.00000
    -9.49463      9.84322  155376.00000
    -0.00732     -0.06987  156532.00000
    -0.00732     -0.12914  156632.00000
    -0.00732     -0.12655  156732.00000
    -0.00732     -0.10880  156833.00000
    -0.00732     -0.09254  156932.00000
    -0.00732     -0.07952  157032.00000
    -0.00732     -0.07025  157133.00000
    -0.00732     -0.06234  157232.00000
    -0.00732     -0.04742  157332.00000
    -0.00732     -0.04248  157433.00000
     8.99170     -7.33954  158319.00000
     8.99170     -7.64638  158419.00000
     8.99170     -7.67726  158519.00000
     8.99170     -7.61915  158620.00000
     8.99170     -7.57460  158719.00000
     8.99170     -7.51606  158819.00000
     8.99170     -7.49318  158920.00000
     8.99170     -7.47321  159019.00000
     8.99170     -7.45427  159119.00000
     8.99170     -7.43874  159220.00000
    -8.99170      8.80283  161128.00000
    -8.99170      9.16757  161229.00000
    -8.99170      9.20998  161328.00000
    -8.99170      9.15246  161428.00000
    -8.99170      9.10549  161528.00000
    -8.99170      9.03849  161628.00000
    -8.99170      9.01242  161729.00000
    -8.99170      8.98910  161828.00000
    -8.99170      8.97052  161928.00000
    -8.99170      8.95274  162029.00000
    -0.00488      0.00042  163153.00000
    -0.00488     -0.10829  163253.00000
    -0.00488     -0.12728  163355.00000
    -0.00488     -0.11094  163454.00000
    -0.00488     -0.09384  163554.00000
    -0.00488     -0.06933  163655.00000
    -0.00488     -0.06058  163754.00000
    -0.00488     -0.05374  163854.00000
    -0.00488     -0.04707  163955.00000
    -0.00488     -0.04072  164054.00000
     8.49365     -6.63387  164904.00000
     8.49365     -6.95908  165004.00000
     8.49365     -6.99534  165105.00000
     8.49365     -6.94290  165204.00000
     8.49365     -6.90195  165304.00000
     8.49365     -6.87126  165405.00000
     8.49365     -6.82595  165504.00000
     8.49365     -6.80615  165604.00000
     8.49365     -6.78929  165705.00000
     8.49365     -6.77438  165804.00000
    -8.49365      7.79819  167646.00000
    -8.49365      8.27736  167748.00000
    -8.49365      8.37912  167847.00000
    -8.49365      8.33258  167947.00000
    -8.49365      8.24840  168048.00000
    -8.49365      8.21811  168147.00000
    -8.49365      8.19326  168247.00000
    -8.49365      8.17329  168348.00000
    -8.49365      8.15492  168447.00000
    -8.49365      8.13798  168547.00000
    -0.00732      0.00561  169674.00000
    -0.00732     -0.09894  169774.00000
    -0.00732     -0.11853  169874.00000
    -0.00732     -0.10424  169975.00000
    -0.00732     -0.07517  170074.00000
    -0.00732     -0.06488  170174.00000
    -0.00732     -0.05620  170275.00000
    -0.00732     -0.04891  170374.00000
    -0.00732     -0.04251  170474.00000
    -0.00732     -0.03862  170575.00000
     7.99316     -6.02930  171399.00000
     7.99316     -6.32144  171501.00000
     7.99316     -6.34975  171600.00000
     7.99316     -6.30199  171700.00000
     7.99316     -6.26533  171801.00000
     7.99316     -6.23821  171900.00000
     7.99316     -6.21495  172000.00000
     7.99316     -6.17821  172101.00000
     7.99316     -6.16335  172200.00000
     7.99316     -6.14922  172300.00000
    -7.99316      6.67840  174100.00000
    -7.99316      7.58828  174202.00000
    -7.99316      7.58352  174301.00000
    -7.99316      7.53317  174402.00000
    -7.99316      7.49556  174501.00000
    -7.99316      7.46703  174601.00000
    -7.99316      7.44323  174702.00000
    -7.99316      7.42202  174801.00000
    -7.99316      7.38555  174902.00000
    -7.99316      7.37037  175002.00000
    -0.00732      0.05502  176102.00000
    -0.00732     -0.07938  176203.00000
    -0.00732     -0.11269  176302.00000
    -0.00732     -0.08425  176402.00000
    -0.00732     -0.07225  176503.00000
    -0.00732     -0.06196  176602.00000
    -0.00732     -0.05283  176702.00000
    -0.00732     -0.04599  176803.00000
    -0.00732     -0.03980  176902.00000
    -0.00732     -0.03292  177002.00000
     7.49512     -5.47654  177816.00000
     7.49512     -5.72689  177917.00000
     7.49512     -5.74501  178017.00000
     7.49512     -5.70092  178118.00000
     7.49512     -5.66689  178217.00000
     7.49512     -5.64076  178317.00000
     7.49512     -5.60453  178418.00000
     7.49512     -5.58927  178517.00000
     7.49512     -5.57555  178617.00000
     7.49512     -5.56315  178718.00000
    -7.49512      6.30842  180492.00000
    -7.49512      6.77141  180594.00000
    -7.49512      6.88826  180693.00000
    -7.49512      6.80813  180793.00000
    -7.49512      6.77757  180894.00000
    -7.49512      6.75393  180993.00000
    -7.49512      6.73229  181093.00000
    -7.49512      6.71430  181194.00000
    -7.49512      6.69785  181293.00000
    -7.49512      6.68334  181393.00000
    -0.00732     -0.01971  182477.00000
    -0.00732     -0.09732  182578.00000
    -0.00732     -0.10353  182679.00000
    -0.00732     -0.08668  182778.00000
    -0.00732     -0.07106  182878.00000
    -0.00732     -0.06066  182979.00000
    -0.00732     -0.04345  183078.00000
    -0.00732     -0.03735  183178.00000
    -0.00732     -0.03089  183279.00000
    -0.00732     -0.02651  183378.00000
     6.99463     -4.79607  184166.00000
     6.99463     -5.12023  184267.00000
     6.99463     -5.17904  184366.00000
     6.99463     -5.14268  184466.00000
     6.99463     -5.10826  184567.00000
     6.99463     -5.06436  184666.00000
     6.99463     -5.04761  184766.00000
     6.99463     -5.03249  184867.00000
     6.99463     -5.01954  184966.00000
     6.99463     -5.00831  185066.00000
    -6.99219      5.84743  186793.00000
    -6.99219      6.17518  186894.00000
    -6.99219      6.22165  186995.00000
    -6.99219      6.17943  187094.00000
    -6.99219      6.14396  187194.00000
    -6.99219      6.09530  187295.00000
    -6.99219      6.07566  187394.00000
    -6.99219      6.05869  187494.00000
    -6.99219      6.04589  187595.00000
    -6.99219      6.03203  187694.00000
    -0.00732      0.07034  188753.00000
    -0.00732     -0.06447  188854.00000
    -0.00732     -0.09743  188955.00000
    -0.00732     -0.07163  189054.00000
    -0.00732     -0.06020  189154.00000
    -0.00732     -0.04950  189255.00000
    -0.00732     -0.04097  189354.00000
    -0.00732     -0.03424  189454.00000
    -0.00732     -0.02924  189555.00000
    -0.00732     -0.02465  189654.00000
     6.49170     -4.17888  190436.00000
     6.49170     -4.54421  190538.00000
     6.49170     -4.61745  190637.00000
     6.49170     -4.58241  190737.00000
     6.49170     -4.55893  190838.00000
     6.49170     -4.53878  190937.00000
     6.49170     -4.52265  191037.00000
     6.49170     -4.50906  191138.00000
     6.49170     -4.49677  191237.00000
     6.49170     -4.47670  191337.00000
    -6.49170      5.39417  193016.00000
    -6.49170      5.59398  193116.00000
    -6.49170      5.59714  193217.00000
    -6.49170      5.55726  193316.00000
    -6.49170      5.52725  193416.00000
    -6.49170      5.50458  193517.00000
    -6.49170      5.48618  193616.00000
    -6.49170      5.45471  193716.00000
    -6.49170      5.44215  193817.00000
    -6.49170      5.43121  193916.00000
    -0.00732      0.00002  194944.00000
    -0.00732     -0.08117  195045.00000
    -0.00732     -0.08622  195146.00000
    -0.00732     -0.07157  195245.00000
    -0.00732     -0.05815  195345.00000
    -0.00732     -0.04696  195446.00000
    -0.00732     -0.03794  195545.00000
    -0.00732     -0.02576  195645.00000
    -0.00732     -0.02135  195746.00000
    -0.00732     -0.01714  195845.00000
     5.99121     -3.57895  196597.00000
     5.99121     -4.13136  196698.00000
     5.99121     -4.11928  196798.00000
     5.99121     -4.08633  196899.00000
     5.99121     -4.06366  196998.00000
     5.99121     -4.04572  197098.00000
     5.99121     -4.03094  197199.00000
     5.99121     -4.01887  197298.00000
     5.99121     -4.00579  197399.00000
     5.99121     -3.98834  197498.00000
    -5.99365      4.45236  199139.00000
    -5.99365      4.89450  199241.00000
    -5.99365      5.01585  199340.00000
    -5.99365      4.97975  199440.00000
    -5.99365      4.95525  199541.00000
    -5.99365      4.93577  199640.00000
    -5.99365      4.91894  199740.00000
    -5.99365      4.90395  199841.00000
    -5.99365      4.88977  199940.00000
    -5.99365      4.86932  200040.00000
    -0.00732      0.08744  201032.00000
    -0.00732     -0.05137  201133.00000
    -0.00732     -0.08203  201233.00000
    -0.00732     -0.06928  201334.00000
    -0.00732     -0.05434  201433.00000
    -0.00732     -0.03481  201533.00000
    -0.00732     -0.02778  201634.00000
    -0.00732     -0.02160  201733.00000
    -0.00732     -0.01603  201833.00000
    -0.00732     -0.01276  201934.00000
     5.49072     -3.13212  202655.00000
     5.49072     -3.53148  202755.00000
     5.49072     -3.64462  202855.00000
     5.49072     -3.61388  202956.00000
     5.49072     -3.59373  203055.00000
     5.49072     -3.57738  203155.00000
     5.49072     -3.56363  203256.00000
     5.49072     -3.55131  203355.00000
     5.49072     -3.54194  203455.00000
     5.49072     -3.52546  203556.00000
    -5.49316      3.84884  205116.00000
    -5.49316      4.32131  205218.00000
    -5.49316      4.48203  205317.00000
    -5.49316      4.44861  205417.00000
    -5.49316      4.42319  205518.00000
    -5.49316      4.40330  205617.00000
    -5.49316      4.38852  205718.00000
    -5.49316      4.37477  205817.00000
    -5.49316      4.36294  205917.00000
    -5.49316      4.34308  206018.00000
    -0.00732      0.05351  206996.00000
    -0.00732     -0.05477  207097.00000
    -0.00732     -0.07201  207196.00000
    -0.00732     -0.05812  207297.00000
    -0.00732     -0.04523  207396.00000
    -0.00732     -0.03497  207496.00000
    -0.00732     -0.02081  207597.00000
    -0.00732     -0.01554  207696.00000
    -0.00732     -0.01044  207796.00000
    -0.00732     -0.00658  207897.00000
     4.99512     -2.89260  208599.00000
     4.99512     -3.16129  208700.00000
     4.99512     -3.21451  208801.00000
     4.99512     -3.18874  208900.00000
     4.99512     -3.14735  209000.00000
     4.99512     -3.13295  209101.00000
     4.99512     -3.12177  209200.00000
     4.99512     -3.11183  209300.00000
     4.99512     -3.10405  209400.00000
     4.99512     -3.09581  209500.00000
    -4.99512      3.76974  211032.00000
    -4.99512      3.97262  211132.00000
    -4.99512      3.98821  211233.00000
    -4.99512      3.95625  211332.00000
    -4.99512      3.93275  211432.00000
    -4.99512      3.91527  211533.00000
    -4.99512      3.90017  211632.00000
    -4.99512      3.87480  211732.00000
    -4.99512      3.86526  211833.00000
    -4.99512      3.85600  211932.00000
    -0.00732      0.07488  212899.00000
    -0.00732     -0.04172  213000.00000
    -0.00732     -0.06269  213101.00000
    -0.00732     -0.05072  213200.00000
    -0.00732     -0.03635  213300.00000
    -0.00732     -0.01987  213401.00000
    -0.00732     -0.01401  213500.00000
    -0.00732     -0.01087  213600.00000
    -0.00732     -0.00522  213701.00000
    -0.00732     -0.00004  213800.00000
     4.49463     -2.51684  214479.00000
     4.49463     -2.74431  214579.00000
     4.49463     -2.78227  214680.00000
     4.49463     -2.75658  214779.00000
     4.49463     -2.73577  214879.00000
     4.49463     -2.70925  214980.00000
     4.49463     -2.69830  215079.00000
     4.49463     -2.68977  215179.00000
     4.49463     -2.68263  215280.00000
     4.49463     -2.67507  215379.00000
    -4.49219      3.11756  216874.00000
    -4.49219      3.43645  216974.00000
    -4.49219      3.51831  217075.00000
    -4.49219      3.47076  217174.00000
    -4.49219      3.45196  217274.00000
    -4.49219      3.43848  217375.00000
    -4.49219      3.42643  217474.00000
    -4.49219      3.41562  217574.00000
    -4.49219      3.40590  217675.00000
    -4.49219      3.39649  217774.00000
    -0.00732      0.12485  218693.00000
    -0.00732     -0.02019  218793.00000
    -0.00732     -0.05150  218893.00000
    -0.00732     -0.04124  218994.00000
    -0.00732     -0.02935  219093.00000
    -0.00732     -0.02046  219193.00000
    -0.00732     -0.00617  219294.00000
    -0.00732     -0.00020  219393.00000
    -0.00732      0.00280  219493.00000
    -0.00732      0.00650  219594.00000
     3.99170     -1.87045  220230.00000
     3.99170     -2.24101  220330.00000
     3.99170     -2.36807  220430.00000
     3.99170     -2.34394  220531.00000
     3.99170     -2.32763  220630.00000
     3.99170     -2.31588  220730.00000
     3.99170     -2.30453  220831.00000
     3.99170     -2.29634  220930.00000
     3.99170     -2.28929  221030.00000
     3.99170     -2.27597  221131.00000
    -3.99414      2.38969  222533.00000
    -3.99414      3.04908  222634.00000
    -3.99414      3.06350  222734.00000
    -3.99414      3.03706  222835.00000
    -3.99414      3.01650  222934.00000
    -3.99414      3.00272  223034.00000
    -3.99414      2.99102  223135.00000
    -3.99414      2.97994  223234.00000
    -3.99414      2.96319  223334.00000
    -3.99414      2.95517  223435.00000
    -0.00732      0.16503  224334.00000
    -0.00732      0.00126  224434.00000
    -0.00732     -0.04088  224536.00000
    -0.00732     -0.03259  224635.00000
    -0.00732     -0.01082  224735.00000
    -0.00732     -0.00396  224836.00000
    -0.00732      0.00080  224935.00000
    -0.00732      0.00515  225035.00000
    -0.00732      0.00901  225136.00000
    -0.00732      0.01225  225235.00000
     3.49121     -1.57630  225846.00000
     3.49121     -1.89011  225948.00000
     3.49121     -1.98961  226047.00000
     3.49121     -1.95951  226147.00000
     3.49121     -1.94520  226248.00000
     3.49121     -1.93404  226347.00000
     3.49121     -1.92550  226447.00000
     3.49121     -1.91845  226548.00000
     3.49121     -1.91264  226647.00000
     3.49121     -1.90670  226747.00000
    -3.49365      2.32009  228102.00000
    -3.49365      2.58379  228204.00000
    -3.49365      2.63939  228303.00000
    -3.49365      2.61924  228403.00000
    -3.49365      2.59951  228504.00000
    -3.49365      2.57320  228603.00000
    -3.49365      2.56164  228703.00000
    -3.49365      2.55421  228804.00000
    -3.49365      2.54792  228903.00000
    -3.49365      2.54170  229003.00000
    -0.00732      0.19869  229879.00000
    -0.00732      0.02106  229980.00000
    -0.00732     -0.02808  230081.00000
    -0.00732     -0.02216  230180.00000
    -0.00732     -0.00225  230280.00000
    -0.00732      0.00461  230381.00000
    -0.00732      0.00880  230480.00000
    -0.00732      0.01277  230580.00000
    -0.00732      0.01771  230681.00000
    -0.00732      0.02120  230780.00000
     2.99072     -1.33700  231355.00000
     2.99072     -1.57641  231456.00000
     2.99072     -1.63309  231555.00000
     2.99072     -1.61729  231655.00000
     2.99072     -1.60113  231756.00000
     2.99072     -1.58173  231855.00000
     2.99072     -1.57336  231955.00000
     2.99072     -1.56693  232056.00000
     2.99072     -1.56134  232155.00000
     2.99072     -1.55682  232255.00000
    -2.99316      1.89001  233554.00000
    -2.99316      2.16654  233655.00000
    -2.99316      2.23192  233756.00000
    -2.99316      2.21500  233855.00000
    -2.99316      2.19663  233955.00000
    -2.99316      2.17319  234056.00000
    -2.99316      2.16467  234155.00000
    -2.99316      2.15654  234255.00000
    -2.99316      2.15011  234356.00000
    -2.99316      2.14466  234455.00000
    -0.00732      0.14071  235295.00000
    -0.00732      0.01036  235395.00000
    -0.00732     -0.01425  235495.00000
    -0.00732     -0.00501  235596.00000
    -0.00732      0.00420  235695.00000
    -0.00732      0.01061  235795.00000
    -0.00732      0.02176  235896.00000
    -0.00732      0.02536  235995.00000
    -0.00732      0.02857  236095.00000
    -0.00732      0.03098  236196.00000
     2.49268     -0.95363  236727.00000
     2.49268     -1.21659  236829.00000
     2.49268     -1.29696  236928.00000
     2.49268     -1.28967  237028.00000
     2.49268     -1.26446  237129.00000
     2.49268     -1.25655  237228.00000
     2.49268     -1.25025  237328.00000
     2.49268     -1.24488  237429.00000
     2.49268     -1.24056  237528.00000
     2.49268     -1.23607  237628.00000
    -2.49512      1.37772  238849.00000
    -2.49512      1.72114  238950.00000
    -2.49512      1.83906  239051.00000
    -2.49512      1.81861  239150.00000
    -2.49512      1.80613  239250.00000
    -2.49512      1.79591  239351.00000
    -2.49512      1.78897  239450.00000
    -2.49512      1.78206  239550.00000
    -2.49512      1.77652  239651.00000
    -2.49512      1.77111  239750.00000
    -0.00732      0.44793  240547.00000
    -0.00732      0.01685  240648.00000
    -0.00732      0.00031  240749.00000
    -0.00732      0.01071  240848.00000
    -0.00732      0.01949  240948.00000
    -0.00732      0.02479  241049.00000
    -0.00732      0.02965  241148.00000
    -0.00732      0.03379  241248.00000
    -0.00732      0.04016  241349.00000
    -0.00732      0.04208  241448.00000
     1.99219     -0.55037  241950.00000
     1.99219     -0.97197  242051.00000
     1.99219     -0.98367  242151.00000
     1.99219     -0.96865  242252.00000
     1.99219     -0.95844  242351.00000
     1.99219     -0.95214  242451.00000
     1.99219     -0.94693  242552.00000
     1.99219     -0.94158  242651.00000
     1.99219     -0.93339  242751.00000
     1.99219     -0.93010  242851.00000
    -1.99463      1.24545  243992.00000
    -1.99463      1.44485  244092.00000
    -1.99463      1.48011  244193.00000
    -1.99463      1.46536  244294.00000
    -1.99463      1.45293  244393.00000
    -1.99463      1.44347  244493.00000
    -1.99463      1.43615  244594.00000
    -1.99463      1.42513  244693.00000
    -1.99463      1.42037  244793.00000
    -1.99463      1.41711  244894.00000
    -0.00732      0.18034  245652.00000
    -0.00732      0.04186  245754.00000
    -0.00732      0.01744  245853.00000
    -0.00732      0.02549  245954.00000
    -0.00732      0.03189  246053.00000
    -0.00732      0.03776  246153.00000
    -0.00732      0.04327  246254.00000
    -0.00732      0.04627  246353.00000
    -0.00732      0.05248  246453.00000
    -0.00732      0.05521  246554.00000
     1.48926     -0.42310  247012.00000
     1.48926     -0.63060  247113.00000
     1.48926     -0.69793  247212.00000
     1.48926     -0.69376  247312.00000
     1.48926     -0.67588  247413.00000
     1.48926     -0.66999  247512.00000
     1.48926     -0.66634  247612.00000
     1.48926     -0.66307  247713.00000
     1.48926     -0.65924  247812.00000
     1.48926     -0.65743  247912.00000
    -1.49414      0.70820  248969.00000
    -1.49414      0.99910  249070.00000
    -1.49414      1.13315  249169.00000
    -1.49414      1.11932  249269.00000
    -1.49414      1.10986  249370.00000
    -1.49414      1.10338  249469.00000
    -1.49414      1.09859  249569.00000
    -1.49414      1.09462  249670.00000
    -1.49414      1.09022  249769.00000
    -1.49414      1.08614  249869.00000
    -0.00732      0.25618  250581.00000
    -0.00732      0.07550  250681.00000
    -0.00732      0.03711  250782.00000
    -0.00732      0.04251  250881.00000
    -0.00732      0.04894  250981.00000
    -0.00732      0.05370  251082.00000
    -0.00732      0.05664  251181.00000
    -0.00732      0.06266  251281.00000
    -0.00732      0.06518  251382.00000
    -0.00732      0.06647  251481.00000
     0.98877     -0.08914  251886.00000
     0.98877     -0.41624  251987.00000
     0.98877     -0.43628  252087.00000
     0.98877     -0.42666  252188.00000
     0.98877     -0.42015  252287.00000
     0.98877     -0.41535  252387.00000
     0.98877     -0.41183  252488.00000
     0.98877     -0.40873  252587.00000
     0.98877     -0.40516  252687.00000
     0.98877     -0.40270  252788.00000
    -0.99365      0.40573  253727.00000
    -0.99365      0.78235  253828.00000
    -0.99365      0.80967  253928.00000
    -0.99365      0.80024  254029.00000
    -0.99365      0.79311  254128.00000
    -0.99365      0.78708  254228.00000
    -0.99365      0.78297  254329.00000
    -0.99365      0.77914  254428.00000
    -0.99365      0.77425  254529.00000
    -0.99365      0.77185  254628.00000
    -0.00732      0.47686  255290.00000
    -0.00732      0.19490  255392.00000
    -0.00732      0.07577  255491.00000
    -0.00732      0.06723  255591.00000
    -0.00732      0.07123  255692.00000
    -0.00732      0.07488  255791.00000
    -0.00732      0.07655  255891.00000
    -0.00732      0.07958  255992.00000
    -0.00732      0.08136  256091.00000
    -0.00732      0.08171  256191.00000
     0.48828      0.03889  256527.00000
     0.48828     -0.08143  256629.00000
     0.48828     -0.18426  256728.00000
     0.48828     -0.17847  256828.00000
     0.48828     -0.17453  256929.00000
     0.48828     -0.17080  257028.00000
     0.48828     -0.16859  257128.00000
     0.48828     -0.16653  257229.00000
     0.48828     -0.16486  257328.00000
     0.48828     -0.16205  257428.00000
    -0.49316      0.31974  258234.00000
    -0.49316      0.44663  258336.00000
    -0.49316      0.49842  258435.00000
    -0.49316      0.49491  258535.00000
    -0.49316      0.48864  258636.00000
    -0.49316      0.48643  258735.00000
    -0.49316      0.48178  258835.00000
    -0.49316      0.47965  258936.00000
    -0.49316      0.47740  259035.00000
    -0.49316      0.47576  259135.00000
    -0.00732      0.33981  259737.00000
    -0.00732      0.16924  259838.00000
    -0.00732      0.09889  259938.00000
    -0.00732      0.09519  260039.00000
    -0.00732      0.09916  260138.00000
    -0.00732      0.10181  260238.00000
    -0.00732      0.10562  260339.00000
    -0.00732      0.10686  260438.00000
    -0.00732      0.10740  260538.00000
    -0.00732      0.10794  260638.00000