# Acquired on 19/12/2023 18:15:52 
# SPIDER: Creep_-1mm_07714532C-1
# CREEP MEASUREMENT

# time [ms]		force [N]		stiffness [N/mm]
1.000			0.366			-0.366
101.000			0.708			-0.708
200.000			0.951			-0.951
300.000			0.945			-0.945
401.000			0.936			-0.936
501.000			0.931			-0.931
601.000			0.926			-0.926
701.000			0.921			-0.921
800.000			0.919			-0.919
901.000			0.913			-0.913
1000.000			0.911			-0.911
1100.000			0.909			-0.909
1202.000			0.906			-0.906
1301.000			0.905			-0.905
1400.000			0.904			-0.904
1501.000			0.901			-0.901
1600.000			0.899			-0.899
1700.000			0.897			-0.897
1801.000			0.895			-0.895
1901.000			0.894			-0.894
2001.000			0.893			-0.893
2101.000			0.892			-0.892
2200.000			0.892			-0.892
2300.000			0.891			-0.891
2401.000			0.888			-0.888
2500.000			0.887			-0.887
2600.000			0.887			-0.887
2702.000			0.887			-0.887
2800.000			0.886			-0.886
2900.000			0.885			-0.885
3001.000			0.884			-0.884
3100.000			0.881			-0.881
3200.000			0.881			-0.881
3302.000			0.881			-0.881
3401.000			0.881			-0.881
3500.000			0.881			-0.881
3601.000			0.880			-0.880
3700.000			0.879			-0.879
3800.000			0.879			-0.879
3901.000			0.876			-0.876
4000.000			0.877			-0.877
4102.000			0.876			-0.876
4201.000			0.875			-0.875
4300.000			0.875			-0.875
4401.000			0.876			-0.876
4500.000			0.875			-0.875
4600.000			0.872			-0.872
4701.000			0.873			-0.873
4801.000			0.872			-0.872
4901.000			0.871			-0.871
5001.000			0.870			-0.870
5100.000			0.870			-0.870
5200.000			0.870			-0.870
5301.000			0.869			-0.869
5400.000			0.868			-0.868
5501.000			0.868			-0.868
5602.000			0.868			-0.868
5700.000			0.867			-0.867
5800.000			0.867			-0.867
5901.000			0.866			-0.866
6000.000			0.866			-0.866
6100.000			0.867			-0.867
6202.000			0.867			-0.867
6301.000			0.866			-0.866
6400.000			0.865			-0.865
6501.000			0.865			-0.865
6600.000			0.865			-0.865
6700.000			0.864			-0.864
6801.000			0.864			-0.864
6901.000			0.863			-0.863
7001.000			0.863			-0.863
7101.000			0.862			-0.862
7200.000			0.863			-0.863
7301.000			0.862			-0.862
7400.000			0.863			-0.863
7500.000			0.862			-0.862
7601.000			0.861			-0.861
7701.000			0.860			-0.860
7801.000			0.860			-0.860
7901.000			0.861			-0.861
8000.000			0.861			-0.861
8100.000			0.861			-0.861
8201.000			0.861			-0.861
8300.000			0.860			-0.860
8401.000			0.860			-0.860
8502.000			0.859			-0.859
8600.000			0.858			-0.858
8700.000			0.859			-0.859
8801.000			0.858			-0.858
8900.000			0.858			-0.858
9000.000			0.857			-0.857
9102.000			0.857			-0.857
9201.000			0.856			-0.856
9300.000			0.857			-0.857
9401.000			0.857			-0.857
9500.000			0.857			-0.857
9600.000			0.857			-0.857
9701.000			0.857			-0.857
9801.000			0.855			-0.855
9901.000			0.855			-0.855
10001.000			0.856			-0.856
10100.000			0.856			-0.856
10200.000			0.855			-0.855
10301.000			0.855			-0.855
10400.000			0.855			-0.855
10502.000			0.855			-0.855
10601.000			0.853			-0.853
10700.000			0.854			-0.854
10801.000			0.853			-0.853
10900.000			0.853			-0.853
11000.000			0.853			-0.853
11101.000			0.853			-0.853
11200.000			0.853			-0.853
11301.000			0.853			-0.853
11402.000			0.853			-0.853
11500.000			0.852			-0.852
11600.000			0.851			-0.851
11701.000			0.853			-0.853
11800.000			0.854			-0.854
11900.000			0.854			-0.854
12002.000			0.851			-0.851
12101.000			0.851			-0.851
12200.000			0.851			-0.851
12301.000			0.850			-0.850
12400.000			0.850			-0.850
12500.000			0.851			-0.851
12601.000			0.852			-0.852
12701.000			0.853			-0.853
12801.000			0.852			-0.852
12901.000			0.851			-0.851
13000.000			0.851			-0.851
13100.000			0.851			-0.851
13201.000			0.851			-0.851
13300.000			0.851			-0.851
13401.000			0.849			-0.849
13502.000			0.850			-0.850
13600.000			0.850			-0.850
13701.000			0.850			-0.850
13800.000			0.849			-0.849
13900.000			0.850			-0.850
14001.000			0.850			-0.850
14100.000			0.850			-0.850
14201.000			0.850			-0.850
14302.000			0.849			-0.849
14400.000			0.850			-0.850
14500.000			0.850			-0.850
14601.000			0.850			-0.850
14700.000			0.849			-0.849
14800.000			0.849			-0.849
14902.000			0.849			-0.849
15001.000			0.849			-0.849
15100.000			0.849			-0.849
15201.000			0.849			-0.849
15300.000			0.848			-0.848
15400.000			0.848			-0.848
15501.000			0.848			-0.848
15600.000			0.848			-0.848
15701.000			0.847			-0.847
15802.000			0.848			-0.848
15900.000			0.848			-0.848
16000.000			0.848			-0.848
16101.000			0.848			-0.848
16200.000			0.848			-0.848
16300.000			0.847			-0.847
16402.000			0.847			-0.847
16501.000			0.847			-0.847
16600.000			0.848			-0.848
16701.000			0.848			-0.848
16800.000			0.847			-0.847
16901.000			0.846			-0.846
17000.000			0.846			-0.846
17100.000			0.847			-0.847
17202.000			0.846			-0.846
17300.000			0.845			-0.845
17400.000			0.846			-0.846
17501.000			0.847			-0.847
17600.000			0.847			-0.847
17700.000			0.845			-0.845
17801.000			0.845			-0.845
17901.000			0.846			-0.846
18001.000			0.846			-0.846
18101.000			0.846			-0.846
18200.000			0.845			-0.845
18300.000			0.845			-0.845
18401.000			0.846			-0.846
18500.000			0.846			-0.846
18601.000			0.846			-0.846
18702.000			0.846			-0.846
18800.000			0.846			-0.846
18900.000			0.845			-0.845
19001.000			0.845			-0.845
19100.000			0.845			-0.845
19200.000			0.844			-0.844
19301.000			0.844			-0.844
19401.000			0.844			-0.844
19501.000			0.844			-0.844
19601.000			0.844			-0.844
19700.000			0.844			-0.844
19800.000			0.843			-0.843
19901.000			0.842			-0.842
20000.000			0.844			-0.844
20102.000			0.844			-0.844
20201.000			0.844			-0.844
20300.000			0.844			-0.844
20401.000			0.844			-0.844
20500.000			0.844			-0.844
20600.000			0.844			-0.844
20701.000			0.843			-0.843
20801.000			0.843			-0.843
20901.000			0.843			-0.843
21001.000			0.843			-0.843
21100.000			0.842			-0.842
21200.000			0.842			-0.842
21301.000			0.841			-0.841
21400.000			0.843			-0.843
21500.000			0.843			-0.843
21602.000			0.843			-0.843
21701.000			0.842			-0.842
21800.000			0.842			-0.842
21901.000			0.843			-0.843
22000.000			0.842			-0.842
22100.000			0.842			-0.842
22201.000			0.841			-0.841
22301.000			0.841			-0.841
22401.000			0.841			-0.841
22501.000			0.840			-0.840
22600.000			0.840			-0.840
22700.000			0.841			-0.841
22801.000			0.840			-0.840
22900.000			0.840			-0.840
23001.000			0.841			-0.841
23102.000			0.841			-0.841
23200.000			0.840			-0.840
23301.000			0.840			-0.840
23400.000			0.841			-0.841
23500.000			0.840			-0.840
23601.000			0.839			-0.839
23701.000			0.839			-0.839
23801.000			0.839			-0.839
23901.000			0.839			-0.839
24000.000			0.839			-0.839
24100.000			0.839			-0.839
24201.000			0.840			-0.840
24300.000			0.839			-0.839
24400.000			0.839			-0.839
24502.000			0.839			-0.839
24601.000			0.839			-0.839
24700.000			0.838			-0.838
24801.000			0.838			-0.838
24900.000			0.838			-0.838
25000.000			0.838			-0.838
25101.000			0.837			-0.837
25201.000			0.838			-0.838
25301.000			0.838			-0.838
25401.000			0.838			-0.838
25500.000			0.837			-0.837
25600.000			0.838			-0.838
25701.000			0.839			-0.839
25800.000			0.838			-0.838
25900.000			0.837			-0.837
26002.000			0.836			-0.836
26101.000			0.837			-0.837
26200.000			0.837			-0.837
26301.000			0.838			-0.838
26400.000			0.838			-0.838
26501.000			0.838			-0.838
26600.000			0.837			-0.837
26701.000			0.838			-0.838
26802.000			0.837			-0.837
26900.000			0.836			-0.836
27000.000			0.837			-0.837
27101.000			0.837			-0.837
27200.000			0.836			-0.836
27300.000			0.837			-0.837
27402.000			0.836			-0.836
27501.000			0.835			-0.835
27600.000			0.834			-0.834
27701.000			0.835			-0.835
27800.000			0.835			-0.835
27900.000			0.836			-0.836
28001.000			0.837			-0.837
28100.000			0.837			-0.837
28201.000			0.836			-0.836
28302.000			0.836			-0.836
28400.000			0.837			-0.837
28500.000			0.836			-0.836
28601.000			0.835			-0.835
28700.000			0.835			-0.835
28800.000			0.835			-0.835
28902.000			0.835			-0.835
29001.000			0.835			-0.835
29100.000			0.835			-0.835
29201.000			0.835			-0.835
29300.000			0.836			-0.836
29400.000			0.835			-0.835
29501.000			0.835			-0.835
29600.000			0.835			-0.835
29702.000			0.834			-0.834
29801.000			0.834			-0.834
29900.000			0.833			-0.833
30001.000			0.834			-0.834
30100.000			0.835			-0.835
30200.000			0.834			-0.834
30301.000			0.834			-0.834
30401.000			0.834			-0.834
30501.000			0.834			-0.834
30601.000			0.836			-0.836
30700.000			0.835			-0.835
30800.000			0.833			-0.833
30901.000			0.833			-0.833
31000.000			0.834			-0.834
31101.000			0.834			-0.834
31202.000			0.834			-0.834
31300.000			0.834			-0.834
31400.000			0.833			-0.833
31501.000			0.833			-0.833
31600.000			0.833			-0.833
31700.000			0.832			-0.832
31802.000			0.834			-0.834
31901.000			0.834			-0.834
32000.000			0.832			-0.832
32101.000			0.834			-0.834
32200.000			0.833			-0.833
32300.000			0.833			-0.833
32401.000			0.834			-0.834
32500.000			0.833			-0.833
32601.000			0.833			-0.833
32702.000			0.833			-0.833
32800.000			0.833			-0.833
32901.000			0.834			-0.834
33000.000			0.834			-0.834
33100.000			0.833			-0.833
33201.000			0.832			-0.832
33301.000			0.834			-0.834
33401.000			0.832			-0.832
33501.000			0.833			-0.833
33600.000			0.834			-0.834
33700.000			0.834			-0.834
33801.000			0.834			-0.834
33900.000			0.834			-0.834
34001.000			0.833			-0.833
34102.000			0.832			-0.832
34200.000			0.832			-0.832
34300.000			0.832			-0.832
34401.000			0.832			-0.832
34500.000			0.832			-0.832
34600.000			0.832			-0.832
34702.000			0.832			-0.832
34801.000			0.833			-0.833
34900.000			0.833			-0.833
35001.000			0.833			-0.833
35100.000			0.833			-0.833
35200.000			0.834			-0.834
35301.000			0.833			-0.833
35401.000			0.832			-0.832
35501.000			0.833			-0.833
35601.000			0.833			-0.833
35700.000			0.833			-0.833
35800.000			0.832			-0.832
35901.000			0.832			-0.832
36000.000			0.833			-0.833
36101.000			0.832			-0.832
36201.000			0.833			-0.833
36301.000			0.833			-0.833
36401.000			0.832			-0.832
36500.000			0.832			-0.832
36600.000			0.833			-0.833
36701.000			0.833			-0.833
36800.000			0.831			-0.831
36901.000			0.832			-0.832
37002.000			0.832			-0.832
37100.000			0.832			-0.832
37200.000			0.830			-0.830
37301.000			0.831			-0.831
37400.000			0.832			-0.832
37500.000			0.831			-0.831
37602.000			0.831			-0.831
37701.000			0.831			-0.831
37800.000			0.831			-0.831
37901.000			0.831			-0.831
38000.000			0.830			-0.830
38100.000			0.830			-0.830
38201.000			0.830			-0.830
38300.000			0.831			-0.831
38401.000			0.831			-0.831
38502.000			0.831			-0.831
38600.000			0.830			-0.830
38700.000			0.830			-0.830
38801.000			0.831			-0.831
38900.000			0.832			-0.832
39000.000			0.832			-0.832
39102.000			0.831			-0.831
39201.000			0.830			-0.830
39301.000			0.830			-0.830
39400.000			0.830			-0.830
39500.000			0.830			-0.830
39601.000			0.830			-0.830
39700.000			0.830			-0.830
39800.000			0.830			-0.830
39902.000			0.830			-0.830
40001.000			0.830			-0.830
40100.000			0.830			-0.830
40201.000			0.830			-0.830
40300.000			0.829			-0.829
40400.000			0.831			-0.831
40501.000			0.831			-0.831
40601.000			0.829			-0.829
40701.000			0.829			-0.829
40801.000			0.830			-0.830
40900.000			0.830			-0.830
41000.000			0.830			-0.830
41101.000			0.830			-0.830
41200.000			0.830			-0.830
41301.000			0.828			-0.828
41402.000			0.829			-0.829
41500.000			0.830			-0.830
41600.000			0.830			-0.830
41701.000			0.829			-0.829
41800.000			0.829			-0.829
41900.000			0.828			-0.828
42002.000			0.828			-0.828
42101.000			0.829			-0.829
42200.000			0.829			-0.829
42301.000			0.829			-0.829
42400.000			0.828			-0.828
42501.000			0.828			-0.828
42600.000			0.829			-0.829
42700.000			0.829			-0.829
42802.000			0.830			-0.830
42901.000			0.829			-0.829
43000.000			0.828			-0.828
43101.000			0.828			-0.828
43200.000			0.828			-0.828
43300.000			0.827			-0.827
43401.000			0.828			-0.828
43501.000			0.829			-0.829
43601.000			0.828			-0.828
43701.000			0.829			-0.829
43800.000			0.829			-0.829
43900.000			0.828			-0.828
44001.000			0.828			-0.828
44100.000			0.829			-0.829
44201.000			0.830			-0.830
44302.000			0.829			-0.829
44400.000			0.830			-0.830
44500.000			0.829			-0.829
44601.000			0.828			-0.828
44700.000			0.829			-0.829
44800.000			0.828			-0.828
44901.000			0.828			-0.828
45001.000			0.829			-0.829
45101.000			0.828			-0.828
45201.000			0.828			-0.828
45300.000			0.828			-0.828
45400.000			0.828			-0.828
45501.000			0.829			-0.829
45600.000			0.828			-0.828
45702.000			0.828			-0.828
45801.000			0.828			-0.828
45900.000			0.828			-0.828
46001.000			0.828			-0.828
46100.000			0.828			-0.828
46200.000			0.828			-0.828
46301.000			0.827			-0.827
46400.000			0.826			-0.826
46501.000			0.827			-0.827
46602.000			0.828			-0.828
46700.000			0.827			-0.827
46800.000			0.826			-0.826
46901.000			0.827			-0.827
47000.000			0.827			-0.827
47100.000			0.827			-0.827
47202.000			0.827			-0.827
47301.000			0.827			-0.827
47400.000			0.827			-0.827
47501.000			0.826			-0.826
47600.000			0.827			-0.827
47700.000			0.826			-0.826
47801.000			0.826			-0.826
47900.000			0.825			-0.825
48001.000			0.827			-0.827
48102.000			0.827			-0.827
48200.000			0.826			-0.826
48300.000			0.827			-0.827
48401.000			0.827			-0.827
48500.000			0.827			-0.827
48600.000			0.827			-0.827
48702.000			0.825			-0.825
48801.000			0.826			-0.826
48901.000			0.827			-0.827
49000.000			0.826			-0.826
49100.000			0.826			-0.826
49201.000			0.826			-0.826
49300.000			0.826			-0.826
49400.000			0.825			-0.825
49502.000			0.825			-0.825
49601.000			0.825			-0.825
49700.000			0.826			-0.826
49801.000			0.825			-0.825
49900.000			0.824			-0.824
50000.000			0.824			-0.824
50101.000			0.825			-0.825
50201.000			0.826			-0.826
50301.000			0.826			-0.826
50401.000			0.825			-0.825
50500.000			0.825			-0.825
50600.000			0.825			-0.825
50701.000			0.825			-0.825
50800.000			0.825			-0.825
50901.000			0.826			-0.826
51002.000			0.826			-0.826
51100.000			0.826			-0.826
51200.000			0.826			-0.826
51301.000			0.826			-0.826
51400.000			0.826			-0.826
51500.000			0.826			-0.826
51602.000			0.826			-0.826
51701.000			0.826			-0.826
51800.000			0.826			-0.826
51901.000			0.826			-0.826
52000.000			0.826			-0.826
52101.000			0.826			-0.826
52200.000			0.827			-0.827
52300.000			0.827			-0.827
52402.000			0.826			-0.826
52501.000			0.826			-0.826
52600.000			0.826			-0.826
52701.000			0.826			-0.826
52800.000			0.827			-0.827
52900.000			0.826			-0.826
53001.000			0.825			-0.825
53101.000			0.825			-0.825
53201.000			0.825			-0.825
53301.000			0.826			-0.826
53400.000			0.827			-0.827
53500.000			0.826			-0.826
53601.000			0.826			-0.826
53700.000			0.825			-0.825
53801.000			0.825			-0.825
53902.000			0.826			-0.826
54000.000			0.826			-0.826
54100.000			0.825			-0.825
54201.000			0.825			-0.825
54300.000			0.825			-0.825
54400.000			0.826			-0.826
54501.000			0.826			-0.826
54601.000			0.826			-0.826
54701.000			0.825			-0.825
54801.000			0.825			-0.825
54900.000			0.825			-0.825
55000.000			0.826			-0.826
55101.000			0.826			-0.826
55200.000			0.825			-0.825
55302.000			0.825			-0.825
55401.000			0.825			-0.825
55500.000			0.825			-0.825
55601.000			0.826			-0.826
55700.000			0.825			-0.825
55800.000			0.826			-0.826
55901.000			0.825			-0.825
56000.000			0.824			-0.824
56101.000			0.824			-0.824
56201.000			0.825			-0.825
56300.000			0.825			-0.825
56400.000			0.824			-0.824
56501.000			0.824			-0.824
56600.000			0.825			-0.825
56700.000			0.825			-0.825
56802.000			0.825			-0.825
56901.000			0.825			-0.825
57000.000			0.826			-0.826
57101.000			0.825			-0.825
57200.000			0.825			-0.825
57300.000			0.825			-0.825
57401.000			0.826			-0.826
57501.000			0.825			-0.825
57601.000			0.825			-0.825
57701.000			0.825			-0.825
57800.000			0.825			-0.825
57900.000			0.825			-0.825
58001.000			0.825			-0.825
58100.000			0.825			-0.825
58200.000			0.825			-0.825
58302.000			0.825			-0.825
58401.000			0.825			-0.825
58501.000			0.825			-0.825
58600.000			0.825			-0.825
58700.000			0.825			-0.825
58801.000			0.825			-0.825
58900.000			0.824			-0.824
59001.000			0.825			-0.825
59102.000			0.824			-0.824
59200.000			0.825			-0.825
59300.000			0.825			-0.825
59401.000			0.825			-0.825
59500.000			0.824			-0.824
59600.000			0.824			-0.824
59701.000			0.825			-0.825
59801.000			0.825			-0.825
59901.000			0.824			-0.824
60001.000			0.824			-0.824
60100.000			0.824			-0.824
60200.000			0.825			-0.825
60301.000			0.825			-0.825
60400.000			0.825			-0.825
60501.000			0.825			-0.825
60602.000			0.824			-0.824
60700.000			0.824			-0.824
60800.000			0.824			-0.824
60901.000			0.824			-0.824
61000.000			0.824			-0.824
61100.000			0.824			-0.824
61202.000			0.825			-0.825
61301.000			0.825			-0.825
61400.000			0.824			-0.824
61501.000			0.823			-0.823
61600.000			0.824			-0.824
61701.000			0.824			-0.824
61800.000			0.825			-0.825
61900.000			0.825			-0.825
62002.000			0.824			-0.824
62100.000			0.823			-0.823
62200.000			0.825			-0.825
62301.000			0.825			-0.825
62400.000			0.825			-0.825
62500.000			0.825			-0.825
62601.000			0.824			-0.824
62701.000			0.823			-0.823
62801.000			0.824			-0.824
62901.000			0.824			-0.824
63000.000			0.824			-0.824
63100.000			0.824			-0.824
63201.000			0.824			-0.824
63300.000			0.823			-0.823
63401.000			0.825			-0.825
63502.000			0.824			-0.824
63600.000			0.824			-0.824
63700.000			0.824			-0.824
63801.000			0.824			-0.824
63900.000			0.824			-0.824
64000.000			0.823			-0.823
64102.000			0.823			-0.823
64201.000			0.823			-0.823
64300.000			0.823			-0.823
64401.000			0.824			-0.824
64500.000			0.824			-0.824
64600.000			0.824			-0.824
64701.000			0.824			-0.824
64800.000			0.822			-0.822
64902.000			0.822			-0.822
65001.000			0.823			-0.823
65100.000			0.823			-0.823
65201.000			0.823			-0.823
65300.000			0.823			-0.823
65400.000			0.823			-0.823
65501.000			0.822			-0.822
65601.000			0.822			-0.822
65701.000			0.823			-0.823
65801.000			0.823			-0.823
65900.000			0.823			-0.823
66000.000			0.823			-0.823
66101.000			0.823			-0.823
66200.000			0.823			-0.823
66300.000			0.823			-0.823
66402.000			0.823			-0.823
66501.000			0.823			-0.823
66600.000			0.823			-0.823
66701.000			0.823			-0.823
66800.000			0.823			-0.823
66900.000			0.822			-0.822
67001.000			0.822			-0.822
67101.000			0.823			-0.823
67201.000			0.823			-0.823
67301.000			0.824			-0.824
67400.000			0.823			-0.823
67500.000			0.822			-0.822
67601.000			0.822			-0.822
67700.000			0.823			-0.823
67800.000			0.823			-0.823
67902.000			0.823			-0.823
68001.000			0.824			-0.824
68101.000			0.822			-0.822
68200.000			0.823			-0.823
68300.000			0.824			-0.824
68401.000			0.823			-0.823
68500.000			0.822			-0.822
68601.000			0.822			-0.822
68702.000			0.822			-0.822
68800.000			0.823			-0.823
68900.000			0.823			-0.823
69001.000			0.823			-0.823
69100.000			0.822			-0.822
69200.000			0.821			-0.821
69301.000			0.821			-0.821
69401.000			0.822			-0.822
69501.000			0.822			-0.822
69601.000			0.822			-0.822
69700.000			0.823			-0.823
69800.000			0.822			-0.822
69901.000			0.822			-0.822
70000.000			0.822			-0.822
70101.000			0.822			-0.822
70202.000			0.822			-0.822
70300.000			0.822			-0.822
70400.000			0.822			-0.822
70501.000			0.822			-0.822
70600.000			0.822			-0.822
70700.000			0.822			-0.822
70802.000			0.821			-0.821
70901.000			0.822			-0.822
71000.000			0.823			-0.823
71101.000			0.822			-0.822
71200.000			0.822			-0.822
71301.000			0.822			-0.822
71400.000			0.822			-0.822
71500.000			0.822			-0.822
71602.000			0.822			-0.822
71701.000			0.822			-0.822
71800.000			0.823			-0.823
71901.000			0.822			-0.822
72000.000			0.821			-0.821
72100.000			0.821			-0.821
72201.000			0.822			-0.822
72301.000			0.822			-0.822
72401.000			0.823			-0.823
72501.000			0.823			-0.823
72600.000			0.823			-0.823
72700.000			0.822			-0.822
72801.000			0.821			-0.821
72900.000			0.821			-0.821
73001.000			0.822			-0.822
73102.000			0.822			-0.822
73200.000			0.822			-0.822
73300.000			0.822			-0.822
73401.000			0.822			-0.822
73500.000			0.821			-0.821
73600.000			0.821			-0.821
73702.000			0.821			-0.821
73801.000			0.821			-0.821
73900.000			0.822			-0.822
74001.000			0.822			-0.822
74100.000			0.821			-0.821
74200.000			0.821			-0.821
74301.000			0.821			-0.821
74400.000			0.822			-0.822
74502.000			0.822			-0.822
74601.000			0.822			-0.822
74700.000			0.821			-0.821
74801.000			0.822			-0.822
74900.000			0.822			-0.822
75000.000			0.823			-0.823
75101.000			0.821			-0.821
75201.000			0.822			-0.822
75301.000			0.822			-0.822
75401.000			0.821			-0.821
75500.000			0.821			-0.821
75600.000			0.822			-0.822
75701.000			0.822			-0.822
75800.000			0.821			-0.821
75901.000			0.821			-0.821
76002.000			0.821			-0.821
76100.000			0.820			-0.820
76200.000			0.820			-0.820
76301.000			0.821			-0.821
76400.000			0.822			-0.822
76500.000			0.821			-0.821
76601.000			0.821			-0.821
76701.000			0.821			-0.821
76801.000			0.821			-0.821
76901.000			0.821			-0.821
77000.000			0.821			-0.821
77100.000			0.821			-0.821
77201.000			0.822			-0.822
77300.000			0.821			-0.821
77400.000			0.820			-0.820
77502.000			0.820			-0.820
77601.000			0.821			-0.821
77701.000			0.821			-0.821
77800.000			0.821			-0.821
77900.000			0.821			-0.821
78001.000			0.822			-0.822
78100.000			0.821			-0.821
78201.000			0.821			-0.821
78302.000			0.820			-0.820
78400.000			0.822			-0.822
78500.000			0.821			-0.821
78601.000			0.822			-0.822
78700.000			0.822			-0.822
78800.000			0.820			-0.820
78902.000			0.821			-0.821
79001.000			0.821			-0.821
79100.000			0.821			-0.821
79201.000			0.822			-0.822
79300.000			0.821			-0.821
79400.000			0.821			-0.821
79501.000			0.821			-0.821
79600.000			0.822			-0.822
79701.000			0.821			-0.821
79802.000			0.821			-0.821
79900.000			0.820			-0.820
80000.000			0.820			-0.820
80101.000			0.820			-0.820
80200.000			0.820			-0.820
80300.000			0.821			-0.821
80402.000			0.820			-0.820
80501.000			0.820			-0.820
80600.000			0.820			-0.820
80701.000			0.821			-0.821
80800.000			0.821			-0.821
80901.000			0.819			-0.819
81000.000			0.820			-0.820
81100.000			0.820			-0.820
81202.000			0.819			-0.819
81301.000			0.820			-0.820
81400.000			0.820			-0.820
81501.000			0.819			-0.819
81600.000			0.819			-0.819
81700.000			0.820			-0.820
81801.000			0.821			-0.821
81901.000			0.821			-0.821
82001.000			0.821			-0.821
82101.000			0.820			-0.820
82200.000			0.818			-0.818
82300.000			0.819			-0.819
82401.000			0.820			-0.820
82500.000			0.819			-0.819
82600.000			0.820			-0.820
82702.000			0.820			-0.820
82801.000			0.819			-0.819
82900.000			0.820			-0.820
83001.000			0.820			-0.820
83100.000			0.820			-0.820
83200.000			0.819			-0.819
83301.000			0.820			-0.820
83401.000			0.819			-0.819
83501.000			0.819			-0.819
83601.000			0.820			-0.820
83700.000			0.821			-0.821
83800.000			0.820			-0.820
83901.000			0.820			-0.820
84000.000			0.820			-0.820
84102.000			0.820			-0.820
84201.000			0.818			-0.818
84301.000			0.818			-0.818
84401.000			0.820			-0.820
84500.000			0.820			-0.820
84600.000			0.820			-0.820
84701.000			0.818			-0.818
84800.000			0.818			-0.818
84901.000			0.819			-0.819
85002.000			0.819			-0.819
85100.000			0.820			-0.820
85200.000			0.820			-0.820
85301.000			0.819			-0.819
85400.000			0.820			-0.820
85500.000			0.820			-0.820
85601.000			0.820			-0.820
85701.000			0.820			-0.820
85801.000			0.819			-0.819
85901.000			0.819			-0.819
86000.000			0.819			-0.819
86100.000			0.820			-0.820
86201.000			0.819			-0.819
86300.000			0.819			-0.819
86400.000			0.821			-0.821
86502.000			0.820			-0.820
86601.000			0.820			-0.820
86700.000			0.819			-0.819
86801.000			0.820			-0.820
86900.000			0.818			-0.818
87000.000			0.819			-0.819
87101.000			0.818			-0.818
87201.000			0.818			-0.818
87302.000			0.818			-0.818
87400.000			0.817			-0.817
87500.000			0.817			-0.817
87601.000			0.817			-0.817
87700.000			0.817			-0.817
87800.000			0.817			-0.817
87901.000			0.817			-0.817
88001.000			0.817			-0.817
88101.000			0.817			-0.817
88201.000			0.816			-0.816
88300.000			0.816			-0.816
88400.000			0.817			-0.817
88501.000			0.817			-0.817
88600.000			0.818			-0.818
88700.000			0.817			-0.817
88802.000			0.818			-0.818
88901.000			0.819			-0.819
89000.000			0.818			-0.818
89101.000			0.817			-0.817
89200.000			0.818			-0.818
89300.000			0.818			-0.818
89401.000			0.817			-0.817
89501.000			0.816			-0.816
89601.000			0.817			-0.817
89701.000			0.817			-0.817
89800.000			0.816			-0.816
89900.000			0.816			-0.816
90001.000			0.816			-0.816
90100.000			0.817			-0.817
90200.000			0.818			-0.818
90302.000			0.817			-0.817
90401.000			0.817			-0.817
90501.000			0.817			-0.817
90600.000			0.817			-0.817
90700.000			0.817			-0.817
90801.000			0.817			-0.817
90900.000			0.817			-0.817
91000.000			0.817			-0.817
91102.000			0.816			-0.816
91201.000			0.816			-0.816
91300.000			0.817			-0.817
91401.000			0.816			-0.816
91500.000			0.817			-0.817
91600.000			0.817			-0.817
91701.000			0.818			-0.818
91801.000			0.817			-0.817
91901.000			0.817			-0.817
92001.000			0.817			-0.817
92100.000			0.818			-0.818
92200.000			0.818			-0.818
92301.000			0.817			-0.817
92400.000			0.817			-0.817
92501.000			0.817			-0.817
92602.000			0.817			-0.817
92700.000			0.817			-0.817
92800.000			0.818			-0.818
92901.000			0.818			-0.818
93000.000			0.817			-0.817
93100.000			0.818			-0.818
93201.000			0.817			-0.817
93301.000			0.817			-0.817
93401.000			0.817			-0.817
93501.000			0.817			-0.817
93600.000			0.818			-0.818
93701.000			0.818			-0.818
93800.000			0.818			-0.818
93900.000			0.819			-0.819
94002.000			0.819			-0.819
94101.000			0.818			-0.818
94201.000			0.818			-0.818
94301.000			0.818			-0.818
94400.000			0.819			-0.819
94500.000			0.818			-0.818
94601.000			0.817			-0.817
94700.000			0.817			-0.817
94801.000			0.817			-0.817
94902.000			0.817			-0.817
95000.000			0.816			-0.816
95100.000			0.816			-0.816
95201.000			0.815			-0.815
95300.000			0.816			-0.816
95400.000			0.816			-0.816
95501.000			0.816			-0.816
95601.000			0.816			-0.816
95701.000			0.817			-0.817
95801.000			0.816			-0.816
95900.000			0.816			-0.816
96000.000			0.816			-0.816
96101.000			0.815			-0.815
96200.000			0.816			-0.816
96301.000			0.817			-0.817
96402.000			0.815			-0.815
96500.000			0.815			-0.815
96600.000			0.815			-0.815
96701.000			0.816			-0.816
96800.000			0.815			-0.815
96901.000			0.815			-0.815
97000.000			0.815			-0.815
97101.000			0.815			-0.815
97202.000			0.816			-0.816
97300.000			0.815			-0.815
97400.000			0.816			-0.816
97501.000			0.815			-0.815
97600.000			0.816			-0.816
97700.000			0.815			-0.815
97801.000			0.815			-0.815
97901.000			0.815			-0.815
98001.000			0.816			-0.816
98101.000			0.816			-0.816
98200.000			0.815			-0.815
98300.000			0.815			-0.815
98401.000			0.816			-0.816
98500.000			0.815			-0.815
98601.000			0.815			-0.815
98702.000			0.815			-0.815
98801.000			0.814			-0.814
98900.000			0.814			-0.814
99001.000			0.814			-0.814
99100.000			0.815			-0.815
99200.000			0.815			-0.815
99301.000			0.815			-0.815
99401.000			0.814			-0.814
99501.000			0.814			-0.814
99601.000			0.815			-0.815
99700.000			0.815			-0.815
99800.000			0.814			-0.814
99901.000			0.813			-0.813
100000.000			0.814			-0.814
100101.000			0.814			-0.814
100201.000			0.813			-0.813
100301.000			0.813			-0.813
100401.000			0.814			-0.814
100500.000			0.814			-0.814
100600.000			0.813			-0.813
100701.000			0.813			-0.813
100800.000			0.814			-0.814
100901.000			0.815			-0.815
101002.000			0.815			-0.815
101100.000			0.814			-0.814
101200.000			0.815			-0.815
101301.000			0.815			-0.815
101400.000			0.814			-0.814
101500.000			0.814			-0.814
101601.000			0.814			-0.814
101701.000			0.814			-0.814
101801.000			0.814			-0.814
101901.000			0.814			-0.814
102000.000			0.815			-0.815
102100.000			0.814			-0.814
102201.000			0.814			-0.814
102300.000			0.813			-0.813
102401.000			0.813			-0.813
102502.000			0.813			-0.813
102600.000			0.813			-0.813
102700.000			0.813			-0.813
102801.000			0.813			-0.813
102900.000			0.814			-0.814
103000.000			0.813			-0.813
103101.000			0.814			-0.814
103201.000			0.814			-0.814
103302.000			0.814			-0.814
103400.000			0.814			-0.814
103500.000			0.814			-0.814
103601.000			0.815			-0.815
103700.000			0.814			-0.814
103800.000			0.814			-0.814
103902.000			0.814			-0.814
104001.000			0.814			-0.814
104100.000			0.815			-0.815
104201.000			0.816			-0.816
104300.000			0.816			-0.816
104400.000			0.816			-0.816
104501.000			0.816			-0.816
104600.000			0.815			-0.815
104701.000			0.815			-0.815
104802.000			0.815			-0.815
104900.000			0.815			-0.815
105000.000			0.816			-0.816
105101.000			0.816			-0.816
105200.000			0.816			-0.816
105300.000			0.816			-0.816
105402.000			0.815			-0.815
105501.000			0.815			-0.815
105600.000			0.816			-0.816
105701.000			0.816			-0.816
105800.000			0.815			-0.815
105900.000			0.816			-0.816
106001.000			0.816			-0.816
106100.000			0.816			-0.816
106201.000			0.816			-0.816
106302.000			0.817			-0.817
106400.000			0.816			-0.816
106501.000			0.815			-0.815
106600.000			0.816			-0.816
106700.000			0.816			-0.816
106801.000			0.816			-0.816
106900.000			0.817			-0.817
107001.000			0.816			-0.816
107102.000			0.816			-0.816
107200.000			0.815			-0.815
107300.000			0.816			-0.816
107401.000			0.815			-0.815
107500.000			0.816			-0.816
107600.000			0.816			-0.816
107702.000			0.817			-0.817
107801.000			0.817			-0.817
107901.000			0.816			-0.816
108001.000			0.816			-0.816
108100.000			0.815			-0.815
108200.000			0.816			-0.816
108301.000			0.815			-0.815
108400.000			0.817			-0.817
108501.000			0.818			-0.818
108602.000			0.817			-0.817
108700.000			0.817			-0.817
108800.000			0.818			-0.818
108901.000			0.817			-0.817
109000.000			0.817			-0.817
109100.000			0.817			-0.817
109201.000			0.816			-0.816
109301.000			0.817			-0.817
109401.000			0.817			-0.817
109501.000			0.817			-0.817
109600.000			0.817			-0.817
109701.000			0.816			-0.816
109800.000			0.816			-0.816
109900.000			0.816			-0.816
110001.000			0.815			-0.815
110101.000			0.816			-0.816
110201.000			0.815			-0.815
110301.000			0.816			-0.816
110400.000			0.816			-0.816
110500.000			0.816			-0.816
110601.000			0.815			-0.815
110700.000			0.815			-0.815
110801.000			0.815			-0.815
110902.000			0.816			-0.816
111000.000			0.816			-0.816
111100.000			0.816			-0.816
111201.000			0.816			-0.816
111300.000			0.816			-0.816
111400.000			0.816			-0.816
111501.000			0.816			-0.816
111601.000			0.816			-0.816
111701.000			0.816			-0.816
111801.000			0.816			-0.816
111900.000			0.816			-0.816
112000.000			0.816			-0.816
112101.000			0.815			-0.815
112200.000			0.815			-0.815
112301.000			0.815			-0.815
112402.000			0.815			-0.815
112500.000			0.816			-0.816
112600.000			0.815			-0.815
112701.000			0.816			-0.816
112800.000			0.816			-0.816
112901.000			0.816			-0.816
113000.000			0.815			-0.815
113101.000			0.816			-0.816
113202.000			0.816			-0.816
113300.000			0.815			-0.815
113400.000			0.815			-0.815
113501.000			0.815			-0.815
113600.000			0.815			-0.815
113700.000			0.815			-0.815
113802.000			0.815			-0.815
113901.000			0.815			-0.815
114000.000			0.815			-0.815
114101.000			0.814			-0.814
114200.000			0.814			-0.814
114300.000			0.814			-0.814
114401.000			0.814			-0.814
114500.000			0.815			-0.815
114601.000			0.816			-0.816
114702.000			0.815			-0.815
114800.000			0.815			-0.815
114900.000			0.815			-0.815
115001.000			0.816			-0.816
115100.000			0.816			-0.816
115200.000			0.817			-0.817
115301.000			0.816			-0.816
115401.000			0.816			-0.816
115501.000			0.816			-0.816
115601.000			0.816			-0.816
115700.000			0.816			-0.816
115800.000			0.816			-0.816
115901.000			0.815			-0.815
116000.000			0.815			-0.815
116102.000			0.815			-0.815
116201.000			0.815			-0.815
116300.000			0.815			-0.815
116401.000			0.816			-0.816
116500.000			0.816			-0.816
116600.000			0.816			-0.816
116701.000			0.815			-0.815
116800.000			0.815			-0.815
116901.000			0.815			-0.815
117002.000			0.815			-0.815
117100.000			0.814			-0.814
117200.000			0.814			-0.814
117301.000			0.816			-0.816
117400.000			0.816			-0.816
117500.000			0.815			-0.815
117601.000			0.814			-0.814
117701.000			0.815			-0.815
117801.000			0.815			-0.815
117901.000			0.814			-0.814
118000.000			0.815			-0.815
118100.000			0.815			-0.815
118201.000			0.814			-0.814
118300.000			0.815			-0.815
118401.000			0.815			-0.815
118502.000			0.815			-0.815
118600.000			0.814			-0.814
118700.000			0.815			-0.815
118801.000			0.815			-0.815
118900.000			0.814			-0.814
119000.000			0.815			-0.815
119101.000			0.815			-0.815
119201.000			0.814			-0.814
119302.000			0.815			-0.815
119400.000			0.815			-0.815
119500.000			0.814			-0.814
119601.000			0.815			-0.815
119700.000			0.816			-0.816
119800.000			0.815			-0.815
119901.000			0.815			-0.815
120001.000			0.815			-0.815
120101.000			0.815			-0.815
120201.000			0.814			-0.814
120300.000			0.814			-0.814
120400.000			0.814			-0.814
120501.000			0.814			-0.814
120600.000			0.814			-0.814
120701.000			0.814			-0.814
120802.000			0.813			-0.813
120900.000			0.813			-0.813
121000.000			0.815			-0.815
121101.000			0.816			-0.816
121200.000			0.815			-0.815
121300.000			0.813			-0.813
121401.000			0.813			-0.813
121501.000			0.814			-0.814
121601.000			0.814			-0.814
121701.000			0.813			-0.813
121800.000			0.813			-0.813
121900.000			0.813			-0.813
122001.000			0.814			-0.814
122100.000			0.814			-0.814
122201.000			0.814			-0.814
122302.000			0.812			-0.812
122401.000			0.813			-0.813
122501.000			0.814			-0.814
122600.000			0.814			-0.814
122700.000			0.814			-0.814
122801.000			0.815			-0.815
122900.000			0.815			-0.815
123001.000			0.813			-0.813
123102.000			0.813			-0.813
123200.000			0.813			-0.813
123300.000			0.813			-0.813
123401.000			0.813			-0.813
123500.000			0.813			-0.813
123600.000			0.813			-0.813
123701.000			0.812			-0.812
123801.000			0.813			-0.813
123901.000			0.813			-0.813
124001.000			0.812			-0.812
124100.000			0.813			-0.813
124200.000			0.812			-0.812
124301.000			0.811			-0.811
124400.000			0.812			-0.812
124501.000			0.812			-0.812
124602.000			0.812			-0.812
124700.000			0.812			-0.812
124800.000			0.812			-0.812
124901.000			0.811			-0.811
125000.000			0.811			-0.811
125100.000			0.811			-0.811
125201.000			0.811			-0.811
125301.000			0.811			-0.811
125401.000			0.812			-0.812
125501.000			0.812			-0.812
125600.000			0.811			-0.811
125701.000			0.811			-0.811
125800.000			0.812			-0.812
125900.000			0.811			-0.811
126002.000			0.812			-0.812
126101.000			0.812			-0.812
126200.000			0.811			-0.811
126301.000			0.811			-0.811
126400.000			0.812			-0.812
126500.000			0.812			-0.812
126601.000			0.812			-0.812
126700.000			0.812			-0.812
126801.000			0.812			-0.812
126902.000			0.812			-0.812
127000.000			0.811			-0.811
127100.000			0.811			-0.811
127201.000			0.812			-0.812
127300.000			0.812			-0.812
127400.000			0.813			-0.813
127501.000			0.811			-0.811
127601.000			0.810			-0.810
127701.000			0.811			-0.811
127801.000			0.811			-0.811
127900.000			0.812			-0.812
128000.000			0.811			-0.811
128101.000			0.810			-0.810
128200.000			0.811			-0.811
128301.000			0.811			-0.811
128402.000			0.810			-0.810
128500.000			0.811			-0.811
128600.000			0.811			-0.811
128701.000			0.811			-0.811
128800.000			0.811			-0.811
128901.000			0.812			-0.812
129000.000			0.812			-0.812
129101.000			0.811			-0.811
129202.000			0.811			-0.811
129300.000			0.811			-0.811
129400.000			0.810			-0.810
129501.000			0.811			-0.811
129600.000			0.811			-0.811
129700.000			0.812			-0.812
129801.000			0.811			-0.811
129901.000			0.811			-0.811
130001.000			0.811			-0.811
130101.000			0.812			-0.812
130200.000			0.811			-0.811
130300.000			0.811			-0.811
130401.000			0.811			-0.811
130500.000			0.810			-0.810
130601.000			0.811			-0.811
130702.000			0.812			-0.812
130800.000			0.811			-0.811
130900.000			0.811			-0.811
131001.000			0.812			-0.812
131100.000			0.811			-0.811
131200.000			0.812			-0.812
131301.000			0.812			-0.812
131401.000			0.812			-0.812
131501.000			0.811			-0.811
131601.000			0.811			-0.811
131700.000			0.812			-0.812
131800.000			0.813			-0.813
131901.000			0.812			-0.812
132000.000			0.811			-0.811
132101.000			0.812			-0.812
132201.000			0.813			-0.813
132301.000			0.812			-0.812
132401.000			0.811			-0.811
132500.000			0.812			-0.812
132600.000			0.813			-0.813
132701.000			0.813			-0.813
132800.000			0.813			-0.813
132900.000			0.812			-0.812
133002.000			0.812			-0.812
133101.000			0.812			-0.812
133200.000			0.812			-0.812
133301.000			0.812			-0.812
133400.000			0.813			-0.813
133500.000			0.813			-0.813
133601.000			0.813			-0.813
133700.000			0.812			-0.812
133801.000			0.813			-0.813
133902.000			0.813			-0.813
134000.000			0.812			-0.812
134100.000			0.812			-0.812
134201.000			0.813			-0.813
134300.000			0.813			-0.813
134400.000			0.813			-0.813
134501.000			0.813			-0.813
134601.000			0.813			-0.813
134701.000			0.813			-0.813
134801.000			0.814			-0.814
134900.000			0.814			-0.814
135000.000			0.814			-0.814
135101.000			0.813			-0.813
135200.000			0.814			-0.814
135301.000			0.814			-0.814
135400.000			0.814			-0.814
135501.000			0.815			-0.815
135602.000			0.814			-0.814
135700.000			0.814			-0.814
135800.000			0.814			-0.814
135901.000			0.813			-0.813
136000.000			0.812			-0.812
136100.000			0.813			-0.813
136201.000			0.814			-0.814
136301.000			0.813			-0.813
136401.000			0.813			-0.813
136501.000			0.812			-0.812
136600.000			0.813			-0.813
136700.000			0.812			-0.812
136801.000			0.812			-0.812
136900.000			0.813			-0.813
137000.000			0.812			-0.812
137101.000			0.813			-0.813
137201.000			0.812			-0.812
137301.000			0.813			-0.813
137401.000			0.813			-0.813
137500.000			0.814			-0.814
137600.000			0.812			-0.812
137701.000			0.812			-0.812
137800.000			0.812			-0.812
137900.000			0.812			-0.812
138002.000			0.812			-0.812
138101.000			0.812			-0.812
138200.000			0.811			-0.811
138301.000			0.812			-0.812
138400.000			0.811			-0.811
138501.000			0.811			-0.811
138600.000			0.811			-0.811
138700.000			0.810			-0.810
138802.000			0.810			-0.810
138901.000			0.810			-0.810
139001.000			0.810			-0.810
139101.000			0.810			-0.810
139200.000			0.810			-0.810
139300.000			0.810			-0.810
139401.000			0.810			-0.810
139500.000			0.810			-0.810
139600.000			0.811			-0.811
139702.000			0.810			-0.810
139801.000			0.810			-0.810
139900.000			0.810			-0.810
140001.000			0.810			-0.810
140100.000			0.811			-0.811
140200.000			0.811			-0.811
140301.000			0.811			-0.811
140400.000			0.811			-0.811
140501.000			0.810			-0.810
140602.000			0.810			-0.810
140700.000			0.810			-0.810
140800.000			0.810			-0.810
140901.000			0.809			-0.809
141000.000			0.810			-0.810
141100.000			0.810			-0.810
141201.000			0.810			-0.810
141301.000			0.809			-0.809
141401.000			0.810			-0.810
141501.000			0.810			-0.810
141600.000			0.810			-0.810
141701.000			0.810			-0.810
141800.000			0.809			-0.809
141900.000			0.810			-0.810
142001.000			0.810			-0.810
142101.000			0.810			-0.810
142201.000			0.810			-0.810
142302.000			0.809			-0.809
142400.000			0.809			-0.809
142500.000			0.809			-0.809
142601.000			0.809			-0.809
142700.000			0.809			-0.809
142800.000			0.809			-0.809
142901.000			0.809			-0.809
143001.000			0.810			-0.810
143101.000			0.810			-0.810
143201.000			0.810			-0.810
143300.000			0.810			-0.810
143400.000			0.810			-0.810
143501.000			0.809			-0.809
143600.000			0.809			-0.809
143700.000			0.810			-0.810
143802.000			0.809			-0.809
143901.000			0.809			-0.809
144000.000			0.809			-0.809
144101.000			0.810			-0.810
144200.000			0.810			-0.810
144300.000			0.809			-0.809
144401.000			0.810			-0.810
144500.000			0.809			-0.809
144600.000			0.809			-0.809
144702.000			0.809			-0.809
144801.000			0.810			-0.810
144901.000			0.810			-0.810
145000.000			0.809			-0.809
145100.000			0.809			-0.809
145201.000			0.809			-0.809
145300.000			0.810			-0.810
145400.000			0.810			-0.810
145502.000			0.810			-0.810
145601.000			0.810			-0.810
145700.000			0.809			-0.809
145801.000			0.809			-0.809
145900.000			0.810			-0.810
146000.000			0.810			-0.810
146101.000			0.810			-0.810
146200.000			0.810			-0.810
146301.000			0.810			-0.810
146402.000			0.810			-0.810
146501.000			0.809			-0.809
146600.000			0.809			-0.809
146701.000			0.811			-0.811
146800.000			0.811			-0.811
146900.000			0.810			-0.810
147001.000			0.810			-0.810
147100.000			0.810			-0.810
147201.000			0.810			-0.810
147302.000			0.811			-0.811
147400.000			0.811			-0.811
147500.000			0.811			-0.811
147601.000			0.810			-0.810
147700.000			0.809			-0.809
147800.000			0.809			-0.809
147901.000			0.812			-0.812
148001.000			0.810			-0.810
148102.000			0.809			-0.809
148201.000			0.810			-0.810
148300.000			0.810			-0.810
148401.000			0.809			-0.809
148500.000			0.810			-0.810
148600.000			0.809			-0.809
148701.000			0.811			-0.811
148800.000			0.811			-0.811
148901.000			0.810			-0.810
149002.000			0.810			-0.810
149100.000			0.810			-0.810
149200.000			0.810			-0.810
149301.000			0.810			-0.810
149400.000			0.810			-0.810
149500.000			0.810			-0.810
149601.000			0.810			-0.810
149701.000			0.809			-0.809
149801.000			0.809			-0.809
149901.000			0.809			-0.809
150000.000			0.810			-0.810
150100.000			0.810			-0.810
150201.000			0.808			-0.808
150300.000			0.810			-0.810
150400.000			0.810			-0.810
150501.000			0.810			-0.810
150601.000			0.810			-0.810
150701.000			0.809			-0.809
150801.000			0.810			-0.810
150900.000			17.636			-17.636
151000.000			83.644			-83.644
151101.000			0.810			-0.810
151200.000			0.808			-0.808
151301.000			0.809			-0.809
151401.000			0.810			-0.810
151501.000			0.810			-0.810
151601.000			0.809			-0.809
151700.000			0.810			-0.810
151800.000			0.810			-0.810
151901.000			0.810			-0.810
152000.000			0.811			-0.811
152100.000			0.812			-0.812
152201.000			0.810			-0.810
152301.000			0.810			-0.810
152401.000			0.811			-0.811
152501.000			0.810			-0.810
152600.000			0.810			-0.810
152700.000			0.810			-0.810
152801.000			0.810			-0.810
152900.000			0.810			-0.810
153000.000			0.810			-0.810
153102.000			0.811			-0.811
153201.000			0.810			-0.810
153300.000			0.810			-0.810
153401.000			0.810			-0.810
153500.000			0.811			-0.811
153600.000			0.810			-0.810
153701.000			0.810			-0.810
153800.000			0.811			-0.811
153901.000			0.810			-0.810
154002.000			0.810			-0.810
154100.000			0.810			-0.810
154200.000			0.810			-0.810
154301.000			0.810			-0.810
154400.000			0.810			-0.810
154501.000			0.809			-0.809
154600.000			0.810			-0.810
154700.000			0.810			-0.810
154802.000			0.810			-0.810
154901.000			0.810			-0.810
155000.000			0.810			-0.810
155101.000			0.810			-0.810
155200.000			0.809			-0.809
155300.000			0.810			-0.810
155401.000			0.810			-0.810
155500.000			0.810			-0.810
155601.000			0.811			-0.811
155702.000			0.810			-0.810
155800.000			0.808			-0.808
155900.000			0.809			-0.809
156001.000			0.809			-0.809
156100.000			0.809			-0.809
156200.000			0.810			-0.810
156301.000			0.810			-0.810
156401.000			0.810			-0.810
156501.000			0.810			-0.810
156602.000			0.810			-0.810
156700.000			0.810			-0.810
156800.000			0.810			-0.810
156901.000			0.809			-0.809
157000.000			0.809			-0.809
157100.000			0.810			-0.810
157201.000			0.810			-0.810
157301.000			0.810			-0.810
157401.000			0.809			-0.809
157501.000			0.809			-0.809
157600.000			0.810			-0.810
157701.000			0.810			-0.810
157800.000			0.810			-0.810
157900.000			0.809			-0.809
158001.000			0.809			-0.809
158101.000			0.810			-0.810
158201.000			0.810			-0.810
158302.000			0.809			-0.809
158400.000			0.809			-0.809
158500.000			0.809			-0.809
158601.000			0.809			-0.809
158700.000			0.809			-0.809
158800.000			0.809			-0.809
158901.000			0.809			-0.809
159001.000			0.810			-0.810
159101.000			0.811			-0.811
159201.000			0.810			-0.810
159300.000			0.809			-0.809
159400.000			0.809			-0.809
159501.000			0.808			-0.808
159600.000			0.808			-0.808
159700.000			0.809			-0.809
159801.000			0.809			-0.809
159901.000			0.809			-0.809
160001.000			0.809			-0.809
160101.000			0.808			-0.808
160200.000			0.809			-0.809
160300.000			0.809			-0.809
160401.000			0.808			-0.808
160500.000			0.809			-0.809
160600.000			0.809			-0.809
160702.000			0.809			-0.809
160801.000			0.809			-0.809
160901.000			0.808			-0.808
161000.000			0.808			-0.808
161100.000			0.809			-0.809
161201.000			0.809			-0.809
161300.000			0.808			-0.808
161400.000			0.809			-0.809
161502.000			0.808			-0.808
161601.000			0.808			-0.808
161701.000			0.810			-0.810
161801.000			0.809			-0.809
161900.000			0.808			-0.808
162000.000			0.810			-0.810
162101.000			0.809			-0.809
162200.000			0.808			-0.808
162300.000			0.808			-0.808
162402.000			0.808			-0.808
162501.000			0.809			-0.809
162600.000			0.809			-0.809
162701.000			0.808			-0.808
162800.000			0.808			-0.808
162900.000			0.808			-0.808
163001.000			0.809			-0.809
163100.000			0.809			-0.809
163201.000			0.808			-0.808
163302.000			0.807			-0.807
163400.000			0.808			-0.808
163500.000			0.808			-0.808
163601.000			0.807			-0.807
163700.000			0.807			-0.807
163800.000			0.807			-0.807
163901.000			0.807			-0.807
164000.000			0.808			-0.808
164102.000			0.809			-0.809
164201.000			0.808			-0.808
164300.000			0.807			-0.807
164401.000			0.807			-0.807
164500.000			0.807			-0.807
164600.000			0.808			-0.808
164701.000			0.808			-0.808
164800.000			0.807			-0.807
164901.000			0.808			-0.808
165002.000			0.808			-0.808
165101.000			0.807			-0.807
165200.000			0.808			-0.808
165301.000			0.808			-0.808
165400.000			0.807			-0.807
165500.000			0.808			-0.808
165601.000			0.807			-0.807
165700.000			0.808			-0.808
165801.000			0.808			-0.808
165902.000			0.808			-0.808
166000.000			0.808			-0.808
166100.000			0.808			-0.808
166201.000			0.808			-0.808
166300.000			0.807			-0.807
166400.000			0.808			-0.808
166501.000			0.808			-0.808
166601.000			0.807			-0.807
166701.000			0.808			-0.808
166801.000			0.810			-0.810
166900.000			0.810			-0.810
167000.000			0.809			-0.809
167101.000			0.807			-0.807
167200.000			0.809			-0.809
167301.000			0.808			-0.808
167400.000			0.808			-0.808
167501.000			0.808			-0.808
167602.000			0.808			-0.808
167700.000			0.808			-0.808
167800.000			0.808			-0.808
167901.000			0.809			-0.809
168000.000			0.808			-0.808
168100.000			0.807			-0.807
168201.000			0.808			-0.808
168300.000			0.808			-0.808
168401.000			0.808			-0.808
168502.000			0.808			-0.808
168600.000			0.809			-0.809
168700.000			0.808			-0.808
168801.000			0.808			-0.808
168900.000			0.808			-0.808
169000.000			0.807			-0.807
169101.000			0.807			-0.807
169201.000			0.808			-0.808
169301.000			0.808			-0.808
169402.000			0.808			-0.808
169500.000			0.808			-0.808
169600.000			0.809			-0.809
169701.000			0.809			-0.809
169800.000			0.810			-0.810
169900.000			0.810			-0.810
170001.000			0.810			-0.810
170101.000			0.809			-0.809
170201.000			0.808			-0.808
170301.000			0.808			-0.808
170400.000			0.808			-0.808
170501.000			0.808			-0.808
170600.000			0.808			-0.808
170700.000			0.808			-0.808
170801.000			0.808			-0.808
170900.000			0.808			-0.808
171001.000			0.809			-0.809
171102.000			0.809			-0.809
171200.000			0.809			-0.809
171300.000			0.809			-0.809
171401.000			0.808			-0.808
171500.000			0.809			-0.809
171600.000			0.810			-0.810
171701.000			0.809			-0.809
171801.000			0.809			-0.809
171901.000			0.808			-0.808
172001.000			0.808			-0.808
172100.000			0.808			-0.808
172200.000			0.808			-0.808
172301.000			0.809			-0.809
172400.000			0.810			-0.810
172500.000			0.810			-0.810
172601.000			0.810			-0.810
172701.000			0.809			-0.809
172801.000			0.809			-0.809
172901.000			0.809			-0.809
173000.000			0.810			-0.810
173100.000			0.810			-0.810
173201.000			0.810			-0.810
173300.000			0.810			-0.810
173400.000			0.810			-0.810
173502.000			0.810			-0.810
173601.000			0.810			-0.810
173701.000			0.810			-0.810
173800.000			0.810			-0.810
173900.000			0.810			-0.810
174001.000			0.810			-0.810
174100.000			0.811			-0.811
174200.000			0.810			-0.810
174301.000			0.809			-0.809
174401.000			0.809			-0.809
174501.000			0.810			-0.810
174601.000			0.810			-0.810
174700.000			0.811			-0.811
174800.000			0.811			-0.811
174901.000			0.811			-0.811
175000.000			0.811			-0.811
175100.000			0.810			-0.810
175202.000			0.809			-0.809
175301.000			0.809			-0.809
175400.000			0.810			-0.810
175501.000			0.810			-0.810
175600.000			0.810			-0.810
175700.000			0.810			-0.810
175801.000			0.810			-0.810
175900.000			0.810			-0.810
176001.000			0.810			-0.810
176102.000			0.810			-0.810
176201.000			0.809			-0.809
176300.000			0.809			-0.809
176401.000			0.809			-0.809
176500.000			0.810			-0.810
176600.000			0.810			-0.810
176701.000			0.809			-0.809
176800.000			0.810			-0.810
176902.000			0.809			-0.809
177001.000			0.809			-0.809
177100.000			0.809			-0.809
177201.000			0.810			-0.810
177300.000			0.810			-0.810
177400.000			0.809			-0.809
177501.000			0.809			-0.809
177600.000			0.809			-0.809
177700.000			0.809			-0.809
177802.000			0.810			-0.810
177901.000			0.811			-0.811
178000.000			0.809			-0.809
178101.000			0.809			-0.809
178200.000			0.809			-0.809
178300.000			0.809			-0.809
178401.000			0.809			-0.809
178500.000			0.809			-0.809
178601.000			0.809			-0.809
178702.000			0.809			-0.809
178801.000			0.809			-0.809
178900.000			0.808			-0.808
179001.000			0.809			-0.809
179100.000			0.809			-0.809
179200.000			0.809			-0.809
179301.000			0.809			-0.809
179400.000			0.809			-0.809
179501.000			0.809			-0.809
179602.000			0.809			-0.809
179701.000			0.808			-0.808
179800.000			0.808			-0.808
179901.000			0.809			-0.809
180000.000			0.809			-0.809
180101.000			0.810			-0.810
180200.000			0.809			-0.809
180300.000			0.808			-0.808
180402.000			0.808			-0.808
180501.000			0.809			-0.809
180600.000			0.809			-0.809
180701.000			0.809			-0.809
180800.000			0.809			-0.809
180900.000			0.808			-0.808
181001.000			0.808			-0.808
181100.000			0.809			-0.809
181200.000			0.808			-0.808
181302.000			0.808			-0.808
181401.000			0.807			-0.807
181500.000			0.808			-0.808
181601.000			0.809			-0.809
181700.000			0.808			-0.808
181800.000			0.807			-0.807
181901.000			0.807			-0.807
182000.000			0.808			-0.808
182101.000			0.808			-0.808
182202.000			0.808			-0.808
182300.000			0.808			-0.808
182400.000			0.808			-0.808
182501.000			0.807			-0.807
182600.000			0.808			-0.808
182700.000			0.809			-0.809
182801.000			0.808			-0.808
182900.000			0.807			-0.807
183001.000			0.808			-0.808
183102.000			0.808			-0.808
183200.000			0.807			-0.807
183301.000			0.807			-0.807
183400.000			0.808			-0.808
183500.000			0.807			-0.807
183601.000			0.807			-0.807
183700.000			0.807			-0.807
183801.000			0.807			-0.807
183902.000			0.807			-0.807
184001.000			0.807			-0.807
184100.000			0.807			-0.807
184201.000			0.807			-0.807
184300.000			0.806			-0.806
184400.000			0.806			-0.806
184501.000			0.806			-0.806
184600.000			0.806			-0.806
184701.000			0.806			-0.806
184802.000			0.807			-0.807
184900.000			0.807			-0.807
185000.000			0.807			-0.807
185101.000			0.806			-0.806
185200.000			0.806			-0.806
185300.000			0.806			-0.806
185401.000			0.806			-0.806
185501.000			0.806			-0.806
185601.000			0.806			-0.806
185702.000			0.806			-0.806
185800.000			0.806			-0.806
185900.000			0.807			-0.807
186001.000			0.807			-0.807
186100.000			0.807			-0.807
186200.000			0.806			-0.806
186301.000			0.807			-0.807
186401.000			0.807			-0.807
186502.000			0.806			-0.806
186600.000			0.807			-0.807
186700.000			0.806			-0.806
186801.000			0.807			-0.807
186900.000			0.806			-0.806
187000.000			0.806			-0.806
187101.000			0.806			-0.806
187201.000			0.805			-0.805
187301.000			0.806			-0.806
187402.000			0.805			-0.805
187500.000			0.805			-0.805
187600.000			0.806			-0.806
187701.000			0.805			-0.805
187800.000			0.806			-0.806
187900.000			0.806			-0.806
188001.000			0.805			-0.805
188101.000			0.805			-0.805
188201.000			0.806			-0.806
188301.000			0.807			-0.807
188400.000			0.806			-0.806
188500.000			0.806			-0.806
188601.000			0.806			-0.806
188700.000			0.806			-0.806
188800.000			0.806			-0.806
188901.000			0.807			-0.807
189001.000			0.806			-0.806
189101.000			0.806			-0.806
189201.000			0.806			-0.806
189300.000			0.807			-0.807
189400.000			0.807			-0.807
189501.000			0.807			-0.807
189600.000			0.806			-0.806
189701.000			0.806			-0.806
189801.000			0.806			-0.806
189901.000			0.806			-0.806
190002.000			0.805			-0.805
190100.000			0.806			-0.806
190200.000			0.806			-0.806
190301.000			0.806			-0.806
190400.000			0.806			-0.806
190500.000			0.806			-0.806
190601.000			0.806			-0.806
190701.000			0.806			-0.806
190801.000			0.806			-0.806
190901.000			0.805			-0.805
191000.000			0.805			-0.805
191100.000			0.806			-0.806
191201.000			0.806			-0.806
191300.000			0.806			-0.806
191400.000			0.807			-0.807
191502.000			0.806			-0.806
191601.000			0.805			-0.805
191700.000			0.805			-0.805
191801.000			0.805			-0.805
191900.000			0.805			-0.805
192000.000			0.806			-0.806
192101.000			0.805			-0.805
192200.000			0.805			-0.805
192300.000			0.806			-0.806
192402.000			0.806			-0.806
192501.000			0.806			-0.806
192600.000			0.806			-0.806
192701.000			0.805			-0.805
192800.000			0.805			-0.805
192901.000			0.805			-0.805
193000.000			0.806			-0.806
193100.000			0.806			-0.806
193202.000			0.806			-0.806
193301.000			0.805			-0.805
193400.000			0.804			-0.804
193501.000			0.805			-0.805
193600.000			0.806			-0.806
193700.000			0.806			-0.806
193801.000			0.806			-0.806
193900.000			0.805			-0.805
194000.000			0.804			-0.804
194102.000			0.805			-0.805
194201.000			0.806			-0.806
194300.000			0.806			-0.806
194401.000			0.805			-0.805
194500.000			0.805			-0.805
194600.000			0.805			-0.805
194701.000			0.804			-0.804
194800.000			0.805			-0.805
194901.000			0.805			-0.805
195002.000			0.805			-0.805
195100.000			0.804			-0.804
195200.000			0.804			-0.804
195301.000			0.805			-0.805
195400.000			0.805			-0.805
195500.000			0.805			-0.805
195601.000			0.805			-0.805
195701.000			0.805			-0.805
195801.000			0.805			-0.805
195902.000			0.805			-0.805
196000.000			0.805			-0.805
196101.000			0.805			-0.805
196200.000			0.805			-0.805
196300.000			0.805			-0.805
196401.000			0.805			-0.805
196500.000			0.805			-0.805
196601.000			0.805			-0.805
196702.000			0.805			-0.805
196800.000			0.804			-0.804
196900.000			0.805			-0.805
197001.000			0.805			-0.805
197100.000			0.806			-0.806
197200.000			0.805			-0.805
197301.000			0.805			-0.805
197401.000			0.805			-0.805
197501.000			0.804			-0.804
197602.000			0.804			-0.804
197700.000			0.805			-0.805
197800.000			0.805			-0.805
197901.000			0.805			-0.805
198000.000			0.805			-0.805
198100.000			0.806			-0.806
198201.000			0.806			-0.806
198301.000			0.806			-0.806
198401.000			0.806			-0.806
198502.000			0.806			-0.806
198600.000			0.805			-0.805
198700.000			0.805			-0.805
198801.000			0.805			-0.805
198900.000			0.805			-0.805
199000.000			0.805			-0.805
199101.000			0.805			-0.805
199201.000			0.806			-0.806
199302.000			0.806			-0.806
199401.000			0.806			-0.806
199500.000			0.805			-0.805
199601.000			0.805			-0.805
199700.000			0.805			-0.805
199800.000			0.805			-0.805
199901.000			0.806			-0.806
200000.000			0.806			-0.806
200101.000			0.806			-0.806
200202.000			0.806			-0.806
200300.000			0.806			-0.806
200400.000			0.806			-0.806
200501.000			0.806			-0.806
200600.000			0.805			-0.805
200700.000			0.805			-0.805
200801.000			0.806			-0.806
200901.000			0.806			-0.806
201001.000			0.806			-0.806
201101.000			0.806			-0.806
201200.000			0.806			-0.806
201300.000			0.805			-0.805
201401.000			0.806			-0.806
201500.000			0.806			-0.806
201600.000			0.806			-0.806
201702.000			0.806			-0.806
201801.000			0.806			-0.806
201900.000			0.806			-0.806
202001.000			0.806			-0.806
202100.000			0.806			-0.806
202200.000			0.806			-0.806
202301.000			0.806			-0.806
202400.000			0.806			-0.806
202501.000			0.805			-0.805
202601.000			0.805			-0.805
202701.000			0.805			-0.805
202801.000			0.806			-0.806
202900.000			0.805			-0.805
203000.000			0.805			-0.805
203101.000			0.805			-0.805
203200.000			0.805			-0.805
203300.000			0.805			-0.805
203402.000			0.805			-0.805
203501.000			0.806			-0.806
203600.000			0.806			-0.806
203701.000			0.805			-0.805
203800.000			0.804			-0.804
203900.000			0.804			-0.804
204001.000			0.806			-0.806
204100.000			0.806			-0.806
204201.000			0.805			-0.805
204302.000			0.805			-0.805
204400.000			0.805			-0.805
204500.000			0.806			-0.806
204601.000			0.806			-0.806
204700.000			0.805			-0.805
204800.000			0.806			-0.806
204901.000			0.805			-0.805
205001.000			0.804			-0.804
205101.000			0.804			-0.804
205201.000			0.805			-0.805
205300.000			0.805			-0.805
205400.000			0.805			-0.805
205501.000			0.805			-0.805
205600.000			0.804			-0.804
205701.000			0.805			-0.805
205801.000			0.804			-0.804
205901.000			0.804			-0.804
206002.000			0.804			-0.804
206100.000			0.805			-0.805
206200.000			0.805			-0.805
206301.000			0.805			-0.805
206400.000			0.806			-0.806
206500.000			0.805			-0.805
206601.000			0.804			-0.804
206701.000			0.804			-0.804
206801.000			0.806			-0.806
206901.000			0.805			-0.805
207000.000			0.805			-0.805
207100.000			0.805			-0.805
207201.000			0.805			-0.805
207300.000			0.805			-0.805
207400.000			0.804			-0.804
207502.000			0.805			-0.805
207601.000			0.805			-0.805
207700.000			0.806			-0.806
207801.000			0.806			-0.806
207900.000			0.806			-0.806
208000.000			0.805			-0.805
208101.000			0.805			-0.805
208200.000			0.805			-0.805
208301.000			0.804			-0.804
208402.000			0.805			-0.805
208501.000			0.804			-0.804
208600.000			0.804			-0.804
208701.000			0.805			-0.805
208800.000			0.805			-0.805
208901.000			0.804			-0.804
209000.000			0.806			-0.806
209100.000			0.806			-0.806
209202.000			0.805			-0.805
209301.000			0.805			-0.805
209400.000			0.804			-0.804
209501.000			0.804			-0.804
209600.000			0.804			-0.804
209700.000			0.805			-0.805
209801.000			0.805			-0.805
209900.000			0.804			-0.804
210001.000			0.803			-0.803
210102.000			0.805			-0.805
210200.000			0.806			-0.806
210300.000			0.806			-0.806
210401.000			0.805			-0.805
210500.000			0.805			-0.805
210600.000			0.804			-0.804
210701.000			0.804			-0.804
210801.000			0.805			-0.805
210901.000			0.805			-0.805
211001.000			0.804			-0.804
211100.000			0.805			-0.805
211200.000			0.804			-0.804
211301.000			0.805			-0.805
211400.000			0.805			-0.805
211500.000			0.805			-0.805
211602.000			0.805			-0.805
211701.000			0.805			-0.805
211801.000			0.804			-0.804
211901.000			0.804			-0.804
212000.000			0.805			-0.805
212101.000			0.804			-0.804
212200.000			0.805			-0.805
212300.000			0.805			-0.805
212401.000			0.805			-0.805
212501.000			0.805			-0.805
212601.000			0.806			-0.806
212701.000			0.804			-0.804
212800.000			0.805			-0.805
212900.000			0.805			-0.805
213001.000			0.806			-0.806
213100.000			0.805			-0.805
213200.000			0.805			-0.805
213302.000			0.805			-0.805
213401.000			0.805			-0.805
213500.000			0.805			-0.805
213601.000			0.804			-0.804
213700.000			0.804			-0.804
213800.000			0.804			-0.804
213901.000			0.804			-0.804
214000.000			0.805			-0.805
214101.000			0.805			-0.805
214202.000			0.805			-0.805
214300.000			0.805			-0.805
214400.000			0.804			-0.804
214501.000			0.805			-0.805
214600.000			0.804			-0.804
214700.000			0.803			-0.803
214801.000			0.803			-0.803
214901.000			0.804			-0.804
215001.000			0.805			-0.805
215102.000			0.804			-0.804
215200.000			0.804			-0.804
215301.000			0.804			-0.804
215400.000			0.804			-0.804
215500.000			0.804			-0.804
215601.000			0.804			-0.804
215700.000			0.803			-0.803
215801.000			0.804			-0.804
215902.000			0.804			-0.804
216000.000			0.803			-0.803
216100.000			0.803			-0.803
216201.000			0.804			-0.804
216300.000			0.804			-0.804
216400.000			0.804			-0.804
216501.000			0.804			-0.804
216601.000			0.804			-0.804
216701.000			0.804			-0.804
216801.000			0.804			-0.804
216900.000			0.804			-0.804
217000.000			0.804			-0.804
217101.000			0.804			-0.804
217200.000			0.805			-0.805
217300.000			0.804			-0.804
217402.000			0.803			-0.803
217501.000			0.803			-0.803
217601.000			0.804			-0.804
217701.000			0.803			-0.803
217800.000			0.804			-0.804
217900.000			0.804			-0.804
218001.000			0.803			-0.803
218100.000			0.803			-0.803
218200.000			0.802			-0.802
218302.000			0.803			-0.803
218401.000			0.804			-0.804
218501.000			0.805			-0.805
218600.000			0.804			-0.804
218700.000			0.803			-0.803
218801.000			0.803			-0.803
218900.000			0.804			-0.804
219000.000			0.804			-0.804
219102.000			0.803			-0.803
219201.000			0.803			-0.803
219300.000			0.803			-0.803
219401.000			0.804			-0.804
219500.000			0.805			-0.805
219600.000			0.803			-0.803
219701.000			0.803			-0.803
219800.000			0.803			-0.803
219900.000			0.802			-0.802
220002.000			0.804			-0.804
220101.000			0.804			-0.804
220200.000			0.804			-0.804
220301.000			0.805			-0.805
220400.000			0.805			-0.805
220500.000			0.804			-0.804
220601.000			0.804			-0.804
220700.000			0.804			-0.804
220801.000			0.804			-0.804
220902.000			0.804			-0.804
221000.000			0.804			-0.804
221100.000			0.804			-0.804
221201.000			0.804			-0.804
221300.000			0.803			-0.803
221400.000			0.802			-0.802
221501.000			0.803			-0.803
221601.000			0.803			-0.803
221702.000			0.803			-0.803
221800.000			0.802			-0.802
221900.000			0.802			-0.802
222001.000			0.802			-0.802
222100.000			0.803			-0.803
222200.000			0.803			-0.803
222301.000			0.803			-0.803
222401.000			0.804			-0.804
222501.000			0.805			-0.805
222601.000			0.805			-0.805
222700.000			0.804			-0.804
222800.000			0.803			-0.803
222901.000			0.803			-0.803
223000.000			0.804			-0.804
223100.000			0.803			-0.803
223202.000			0.802			-0.802
223301.000			0.803			-0.803
223400.000			0.804			-0.804
223501.000			0.805			-0.805
223600.000			0.805			-0.805
223700.000			0.804			-0.804
223801.000			0.804			-0.804
223900.000			0.804			-0.804
224001.000			0.804			-0.804
224102.000			0.804			-0.804
224200.000			0.804			-0.804
224300.000			0.803			-0.803
224401.000			0.803			-0.803
224500.000			0.804			-0.804
224600.000			0.804			-0.804
224701.000			0.804			-0.804
224801.000			0.804			-0.804
224902.000			0.804			-0.804
225001.000			0.803			-0.803
225100.000			0.803			-0.803
225201.000			0.803			-0.803
225300.000			0.803			-0.803
225400.000			0.804			-0.804
225501.000			0.804			-0.804
225600.000			0.804			-0.804
225701.000			0.805			-0.805
225802.000			0.805			-0.805
225900.000			0.804			-0.804
226000.000			0.805			-0.805
226101.000			0.804			-0.804
226200.000			0.805			-0.805
226300.000			0.805			-0.805
226401.000			0.805			-0.805
226501.000			0.804			-0.804
226601.000			0.804			-0.804
226701.000			0.805			-0.805
226800.000			0.805			-0.805
226900.000			0.805			-0.805
227001.000			0.804			-0.804
227100.000			0.805			-0.805
227200.000			0.804			-0.804
227301.000			0.804			-0.804
227401.000			0.805			-0.805
227501.000			0.804			-0.804
227601.000			0.804			-0.804
227700.000			0.804			-0.804
227800.000			0.804			-0.804
227901.000			0.803			-0.803
228000.000			0.803			-0.803
228101.000			0.804			-0.804
228201.000			0.803			-0.803
228301.000			0.803			-0.803
228401.000			0.802			-0.802
228500.000			0.803			-0.803
228600.000			0.803			-0.803
228701.000			0.803			-0.803
228800.000			0.803			-0.803
228900.000			0.803			-0.803
229002.000			0.803			-0.803
229101.000			0.802			-0.802
229201.000			0.803			-0.803
229301.000			0.803			-0.803
229400.000			0.802			-0.802
229500.000			0.803			-0.803
229601.000			0.803			-0.803
229700.000			0.802			-0.802
229800.000			0.802			-0.802
229902.000			0.803			-0.803
230001.000			0.804			-0.804
230100.000			0.804			-0.804
230201.000			0.804			-0.804
230300.000			0.804			-0.804
230400.000			0.804			-0.804
230501.000			0.805			-0.805
230600.000			0.804			-0.804
230701.000			0.802			-0.802
230802.000			0.803			-0.803
230900.000			0.803			-0.803
231000.000			0.804			-0.804
231101.000			0.803			-0.803
231200.000			0.803			-0.803
231301.000			0.804			-0.804
231400.000			0.803			-0.803
231501.000			0.804			-0.804
231602.000			0.804			-0.804
231701.000			0.804			-0.804
231800.000			0.805			-0.805
231901.000			0.804			-0.804
232000.000			0.803			-0.803
232100.000			0.804			-0.804
232201.000			0.804			-0.804
232301.000			0.804			-0.804
232401.000			0.805			-0.805
232502.000			0.804			-0.804
232600.000			0.805			-0.805
232700.000			0.804			-0.804
232801.000			0.804			-0.804
232900.000			0.805			-0.805
233000.000			0.804			-0.804
233101.000			0.804			-0.804
233201.000			0.804			-0.804
233301.000			0.804			-0.804
233401.000			0.804			-0.804
233500.000			0.805			-0.805
233600.000			0.805			-0.805
233701.000			0.804			-0.804
233800.000			0.805			-0.805
233900.000			0.805			-0.805
234002.000			0.806			-0.806
234101.000			0.806			-0.806
234200.000			0.805			-0.805
234301.000			0.805			-0.805
234400.000			0.805			-0.805
234501.000			0.805			-0.805
234600.000			0.804			-0.804
234700.000			0.805			-0.805
234802.000			0.805			-0.805
234901.000			0.805			-0.805
235001.000			0.805			-0.805
235101.000			0.805			-0.805
235200.000			0.804			-0.804
235300.000			0.804			-0.804
235401.000			0.805			-0.805
235500.000			0.804			-0.804
235600.000			0.804			-0.804
235702.000			0.804			-0.804
235801.000			0.803			-0.803
235900.000			0.803			-0.803
236001.000			0.803			-0.803
236100.000			0.803			-0.803
236200.000			0.802			-0.802
236301.000			0.803			-0.803
236400.000			0.803			-0.803
236501.000			0.803			-0.803
236602.000			0.804			-0.804
236700.000			0.805			-0.805
236800.000			0.805			-0.805
236901.000			0.804			-0.804
237000.000			0.804			-0.804
237100.000			0.805			-0.805
237201.000			0.804			-0.804
237301.000			0.804			-0.804
237401.000			0.804			-0.804
237501.000			0.805			-0.805
237600.000			0.805			-0.805
237701.000			0.804			-0.804
237800.000			0.804			-0.804
237900.000			0.805			-0.805
238001.000			0.805			-0.805
238100.000			0.805			-0.805
238201.000			0.804			-0.804
238302.000			0.804			-0.804
238400.000			0.804			-0.804
238500.000			0.804			-0.804
238601.000			0.805			-0.805
238700.000			0.804			-0.804
238800.000			0.804			-0.804
238901.000			0.804			-0.804
239001.000			0.804			-0.804
239101.000			0.805			-0.805
239202.000			0.805			-0.805
239300.000			0.804			-0.804
239400.000			0.804			-0.804
239501.000			0.805			-0.805
239600.000			0.804			-0.804
239700.000			0.805			-0.805
239801.000			0.805			-0.805
239901.000			0.805			-0.805
240001.000			0.804			-0.804
240101.000			0.805			-0.805
240200.000			0.804			-0.804
240300.000			0.805			-0.805
240401.000			0.804			-0.804
240500.000			0.803			-0.803
240600.000			0.803			-0.803
240702.000			0.803			-0.803
240801.000			0.804			-0.804
240901.000			0.804			-0.804
241000.000			0.804			-0.804
241100.000			0.804			-0.804
241201.000			0.804			-0.804
241300.000			0.804			-0.804
241400.000			0.804			-0.804
241502.000			0.803			-0.803
241601.000			0.803			-0.803
241700.000			0.803			-0.803
241801.000			0.805			-0.805
241900.000			0.805			-0.805
242000.000			0.804			-0.804
242101.000			0.804			-0.804
242200.000			0.804			-0.804
242300.000			0.804			-0.804
242402.000			0.803			-0.803
242501.000			0.803			-0.803
242600.000			0.805			-0.805
242701.000			0.804			-0.804
242800.000			0.803			-0.803
242900.000			0.802			-0.802
243001.000			0.803			-0.803
243100.000			0.804			-0.804
243201.000			0.805			-0.805
243302.000			0.804			-0.804
243400.000			0.804			-0.804
243500.000			0.804			-0.804
243601.000			0.803			-0.803
243700.000			0.803			-0.803
243800.000			0.803			-0.803
243901.000			0.803			-0.803
244001.000			0.803			-0.803
244102.000			0.803			-0.803
244201.000			0.802			-0.802
244300.000			0.802			-0.802
244401.000			0.803			-0.803
244500.000			0.804			-0.804
244600.000			0.804			-0.804
244701.000			0.804			-0.804
244800.000			0.803			-0.803
244901.000			0.803			-0.803
245002.000			0.803			-0.803
245100.000			0.802			-0.802
245200.000			0.803			-0.803
245301.000			0.804			-0.804
245400.000			0.803			-0.803
245500.000			0.803			-0.803
245601.000			0.802			-0.802
245701.000			0.802			-0.802
245801.000			0.803			-0.803
245901.000			0.804			-0.804
246000.000			0.803			-0.803
246100.000			0.803			-0.803
246201.000			0.803			-0.803
246300.000			0.802			-0.802
246400.000			0.803			-0.803
246501.000			0.804			-0.804
246601.000			0.804			-0.804
246701.000			0.804			-0.804
246801.000			0.803			-0.803
246900.000			0.802			-0.802
247000.000			0.802			-0.802
247101.000			0.803			-0.803
247200.000			0.803			-0.803
247301.000			0.803			-0.803
247401.000			0.803			-0.803
247501.000			0.803			-0.803
247601.000			0.804			-0.804
247700.000			0.804			-0.804
247800.000			0.803			-0.803
247901.000			0.804			-0.804
248000.000			0.803			-0.803
248100.000			0.804			-0.804
248202.000			0.803			-0.803
248301.000			0.804			-0.804
248400.000			0.804			-0.804
248501.000			0.804			-0.804
248600.000			0.804			-0.804
248700.000			0.804			-0.804
248801.000			0.804			-0.804
248900.000			0.804			-0.804
249000.000			0.803			-0.803
249102.000			0.803			-0.803
249201.000			0.804			-0.804
249300.000			0.803			-0.803
249401.000			0.803			-0.803
249500.000			0.803			-0.803
249600.000			0.803			-0.803
249701.000			0.802			-0.802
249800.000			0.802			-0.802
249901.000			0.802			-0.802
250002.000			0.802			-0.802
250100.000			0.802			-0.802
250200.000			0.802			-0.802
250301.000			0.802			-0.802
250400.000			0.803			-0.803
250501.000			0.802			-0.802
250600.000			0.803			-0.803
250701.000			0.803			-0.803
250802.000			0.803			-0.803
250900.000			0.805			-0.805
251000.000			0.804			-0.804
251101.000			0.805			-0.805
251200.000			0.805			-0.805
251300.000			0.805			-0.805
251401.000			0.806			-0.806
251501.000			0.806			-0.806
251601.000			0.806			-0.806
251702.000			0.805			-0.805
251800.000			0.806			-0.806
251900.000			0.806			-0.806
252001.000			0.807			-0.807
252100.000			0.807			-0.807
252200.000			0.806			-0.806
252301.000			0.807			-0.807
252401.000			0.807			-0.807
252501.000			0.807			-0.807
252601.000			0.806			-0.806
252700.000			0.807			-0.807
252800.000			0.806			-0.806
252901.000			0.806			-0.806
253000.000			0.806			-0.806
253100.000			0.805			-0.805
253202.000			0.805			-0.805
253301.000			0.806			-0.806
253400.000			0.806			-0.806
253501.000			0.806			-0.806
253600.000			0.807			-0.807
253701.000			0.807			-0.807
253800.000			0.807			-0.807
253900.000			0.806			-0.806
254002.000			0.806			-0.806
254101.000			0.807			-0.807
254200.000			0.807			-0.807
254301.000			0.807			-0.807
254400.000			0.807			-0.807
254500.000			0.807			-0.807
254601.000			0.806			-0.806
254700.000			0.807			-0.807
254800.000			0.808			-0.808
254902.000			0.807			-0.807
255001.000			0.806			-0.806
255100.000			0.806			-0.806
255201.000			0.806			-0.806
255300.000			0.807			-0.807
255400.000			0.806			-0.806
255501.000			0.806			-0.806
255600.000			0.806			-0.806
255701.000			0.806			-0.806
255802.000			0.806			-0.806
255900.000			0.806			-0.806
256000.000			0.806			-0.806
256101.000			0.807			-0.807
256200.000			0.806			-0.806
256300.000			0.806			-0.806
256401.000			0.806			-0.806
256501.000			0.805			-0.805
256601.000			0.805			-0.805
256702.000			0.805			-0.805
256800.000			0.806			-0.806
256901.000			0.806			-0.806
257000.000			0.805			-0.805
257100.000			0.806			-0.806
257201.000			0.806			-0.806
257300.000			0.805			-0.805
257401.000			0.805			-0.805
257502.000			0.806			-0.806
257601.000			0.806			-0.806
257700.000			0.806			-0.806
257801.000			0.806			-0.806
257900.000			0.805			-0.805
258000.000			0.804			-0.804
258101.000			0.804			-0.804
258200.000			0.804			-0.804
258301.000			0.805			-0.805
258402.000			0.805			-0.805
258500.000			0.804			-0.804
258600.000			0.804			-0.804
258701.000			0.804			-0.804
258800.000			0.804			-0.804
258900.000			0.804			-0.804
259001.000			0.804			-0.804
259101.000			0.803			-0.803
259201.000			0.803			-0.803
259302.000			0.803			-0.803
259400.000			0.803			-0.803
259500.000			0.804			-0.804
259601.000			0.804			-0.804
259700.000			0.804			-0.804
259800.000			0.804			-0.804
259901.000			0.805			-0.805
260001.000			0.804			-0.804
260102.000			0.804			-0.804
260200.000			0.804			-0.804
260300.000			0.805			-0.805
260401.000			0.804			-0.804
260500.000			0.805			-0.805
260600.000			0.805			-0.805
260701.000			0.805			-0.805
260801.000			0.805			-0.805
260901.000			0.804			-0.804
261001.000			0.804			-0.804
261100.000			0.804			-0.804
261200.000			0.804			-0.804
261301.000			0.804			-0.804
261400.000			0.805			-0.805
261500.000			0.805			-0.805
261601.000			0.805			-0.805
261701.000			0.805			-0.805
261801.000			0.806			-0.806
261901.000			0.806			-0.806
262000.000			0.805			-0.805
262100.000			0.805			-0.805
262201.000			0.805			-0.805
262300.000			0.806			-0.806
262400.000			0.805			-0.805
262502.000			0.805			-0.805
262601.000			0.805			-0.805
262700.000			0.805			-0.805
262801.000			0.805			-0.805
262900.000			0.805			-0.805
263000.000			0.804			-0.804
263101.000			0.804			-0.804
263200.000			0.805			-0.805
263302.000			0.806			-0.806
263401.000			0.805			-0.805
263500.000			0.804			-0.804
263601.000			0.805			-0.805
263700.000			0.804			-0.804
263800.000			0.804			-0.804
263901.000			0.805			-0.805
264000.000			0.805			-0.805
264100.000			0.805			-0.805
264202.000			0.804			-0.804
264301.000			0.804			-0.804
264400.000			0.805			-0.805
264501.000			0.806			-0.806
264600.000			0.805			-0.805
264700.000			0.804			-0.804
264801.000			0.804			-0.804
264900.000			0.805			-0.805
265001.000			0.805			-0.805
265102.000			0.804			-0.804
265200.000			0.805			-0.805
265300.000			0.805			-0.805
265401.000			0.805			-0.805
265500.000			0.805			-0.805
265600.000			0.805			-0.805
265701.000			0.805			-0.805
265801.000			0.805			-0.805
265901.000			0.805			-0.805
266001.000			0.804			-0.804
266100.000			0.804			-0.804
266200.000			0.804			-0.804
266301.000			0.805			-0.805
266400.000			0.804			-0.804
266501.000			0.804			-0.804
266600.000			0.804			-0.804
266701.000			0.803			-0.803
266802.000			0.804			-0.804
266900.000			0.804			-0.804
267000.000			0.803			-0.803
267101.000			0.803			-0.803
267200.000			0.804			-0.804
267300.000			0.804			-0.804
267401.000			0.803			-0.803
267501.000			0.804			-0.804
267601.000			0.803			-0.803
267701.000			0.803			-0.803
267800.000			0.803			-0.803
267900.000			0.803			-0.803
268001.000			0.804			-0.804
268100.000			0.802			-0.802
268200.000			0.803			-0.803
268302.000			0.803			-0.803
268401.000			0.803			-0.803
268501.000			0.804			-0.804
268601.000			0.804			-0.804
268700.000			0.803			-0.803
268800.000			0.804			-0.804
268901.000			0.804			-0.804
269000.000			0.803			-0.803
269100.000			0.802			-0.802
269202.000			0.803			-0.803
269301.000			0.803			-0.803
269400.000			0.803			-0.803
269501.000			0.802			-0.802
269600.000			0.803			-0.803
269701.000			0.803			-0.803
269800.000			0.801			-0.801
269900.000			0.801			-0.801
270001.000			0.803			-0.803
270101.000			0.801			-0.801
270201.000			0.801			-0.801
270301.000			0.801			-0.801
270400.000			0.801			-0.801
270500.000			0.801			-0.801
270601.000			0.800			-0.800
270700.000			0.801			-0.801
270800.000			0.801			-0.801
270902.000			0.802			-0.802
271001.000			0.801			-0.801
271100.000			0.802			-0.802
271201.000			0.802			-0.802
271300.000			0.801			-0.801
271400.000			0.801			-0.801
271501.000			0.802			-0.802
271600.000			0.801			-0.801
271701.000			0.801			-0.801
271802.000			0.800			-0.800
271900.000			0.801			-0.801
272000.000			0.801			-0.801
272101.000			0.801			-0.801
272200.000			0.801			-0.801
272300.000			0.801			-0.801
272401.000			0.801			-0.801
272501.000			0.801			-0.801
272601.000			0.802			-0.802
272701.000			0.802			-0.802
272800.000			0.801			-0.801
272901.000			0.801			-0.801
273000.000			0.802			-0.802
273100.000			0.802			-0.802
273201.000			0.802			-0.802
273301.000			0.801			-0.801
273401.000			0.802			-0.802
273501.000			0.802			-0.802
273600.000			0.801			-0.801
273700.000			0.801			-0.801
273801.000			0.801			-0.801
273900.000			0.801			-0.801
274000.000			0.801			-0.801
274101.000			0.801			-0.801
274201.000			0.801			-0.801
274301.000			0.802			-0.802
274401.000			0.802			-0.802
274500.000			0.802			-0.802
274600.000			0.801			-0.801
274701.000			0.801			-0.801
274800.000			0.801			-0.801
274900.000			0.802			-0.802
275002.000			0.803			-0.803
275101.000			0.802			-0.802
275200.000			0.802			-0.802
275301.000			0.802			-0.802
275400.000			0.802			-0.802
275500.000			0.803			-0.803
275601.000			0.802			-0.802
275700.000			0.800			-0.800
275801.000			0.801			-0.801
275902.000			0.802			-0.802
276001.000			0.800			-0.800
276101.000			0.801			-0.801
276200.000			0.801			-0.801
276300.000			0.801			-0.801
276401.000			0.801			-0.801
276500.000			0.802			-0.802
276600.000			0.800			-0.800
276702.000			0.800			-0.800
276801.000			0.801			-0.801
276900.000			0.800			-0.800
277001.000			0.801			-0.801
277100.000			0.801			-0.801
277200.000			0.802			-0.802
277301.000			0.801			-0.801
277400.000			0.801			-0.801
277501.000			0.800			-0.800
277602.000			0.800			-0.800
277701.000			0.800			-0.800
277800.000			0.802			-0.802
277901.000			0.802			-0.802
278000.000			0.801			-0.801
278100.000			0.801			-0.801
278201.000			0.800			-0.800
278300.000			0.801			-0.801
278401.000			0.801			-0.801
278502.000			0.800			-0.800
278600.000			0.800			-0.800
278700.000			0.800			-0.800
278801.000			0.799			-0.799
278900.000			0.799			-0.799
279000.000			0.799			-0.799
279101.000			0.800			-0.800
279200.000			0.800			-0.800
279302.000			0.799			-0.799
279401.000			0.799			-0.799
279500.000			0.800			-0.800
279601.000			0.800			-0.800
279700.000			0.799			-0.799
279800.000			0.799			-0.799
279901.000			0.800			-0.800
280000.000			0.800			-0.800
280100.000			0.800			-0.800
280202.000			0.800			-0.800
280301.000			0.800			-0.800
280400.000			0.800			-0.800
280501.000			0.800			-0.800
280600.000			0.800			-0.800
280700.000			0.800			-0.800
280801.000			0.800			-0.800
280900.000			0.800			-0.800
281001.000			0.800			-0.800
281102.000			0.799			-0.799
281201.000			0.799			-0.799
281300.000			0.800			-0.800
281401.000			0.800			-0.800
281500.000			0.800			-0.800
281600.000			0.799			-0.799
281701.000			0.799			-0.799
281800.000			0.800			-0.800
281901.000			0.800			-0.800
282002.000			0.799			-0.799
282101.000			0.800			-0.800
282200.000			0.800			-0.800
282301.000			0.799			-0.799
282400.000			0.799			-0.799
282501.000			0.799			-0.799
282600.000			0.800			-0.800
282700.000			0.800			-0.800
282802.000			0.799			-0.799
282901.000			0.799			-0.799
283000.000			0.799			-0.799
283101.000			0.800			-0.800
283200.000			0.799			-0.799
283300.000			0.798			-0.798
283401.000			0.799			-0.799
283500.000			0.800			-0.800
283600.000			0.801			-0.801
283702.000			0.800			-0.800
283801.000			0.800			-0.800
283900.000			0.799			-0.799
284001.000			0.801			-0.801
284100.000			0.801			-0.801
284200.000			0.800			-0.800
284301.000			0.801			-0.801
284400.000			0.801			-0.801
284501.000			0.799			-0.799
284602.000			0.799			-0.799
284700.000			0.800			-0.800
284800.000			0.800			-0.800
284901.000			0.799			-0.799
285000.000			0.800			-0.800
285100.000			0.801			-0.801
285201.000			0.800			-0.800
285300.000			0.800			-0.800
285401.000			0.799			-0.799
285502.000			0.799			-0.799
285600.000			0.800			-0.800
285701.000			0.800			-0.800
285800.000			0.800			-0.800
285900.000			0.800			-0.800
286001.000			0.801			-0.801
286100.000			0.800			-0.800
286200.000			0.800			-0.800
286302.000			0.800			-0.800
286401.000			0.800			-0.800
286500.000			0.799			-0.799
286601.000			0.800			-0.800
286700.000			0.799			-0.799
286800.000			0.799			-0.799
286901.000			0.799			-0.799
287000.000			0.799			-0.799
287100.000			0.799			-0.799
287202.000			0.801			-0.801
287301.000			0.801			-0.801
287400.000			0.800			-0.800
287501.000			0.799			-0.799
287600.000			0.799			-0.799
287700.000			0.800			-0.800
287801.000			0.800			-0.800
287900.000			0.801			-0.801
288000.000			0.799			-0.799
288102.000			0.799			-0.799
288201.000			0.800			-0.800
288300.000			0.799			-0.799
288401.000			0.800			-0.800
288500.000			0.800			-0.800
288600.000			0.801			-0.801
288701.000			0.801			-0.801
288800.000			0.800			-0.800
288901.000			0.800			-0.800
289001.000			0.800			-0.800
289101.000			0.800			-0.800
289201.000			0.800			-0.800
289300.000			0.800			-0.800
289400.000			0.800			-0.800
289501.000			0.799			-0.799
289600.000			0.800			-0.800
289700.000			0.800			-0.800
289802.000			0.800			-0.800
289901.000			0.801			-0.801
290001.000			0.801			-0.801
290101.000			0.801			-0.801
290200.000			0.800			-0.800
290300.000			0.799			-0.799
290401.000			0.800			-0.800
290500.000			0.801			-0.801
290600.000			0.799			-0.799
290702.000			0.799			-0.799
290801.000			0.799			-0.799
290901.000			0.799			-0.799
291001.000			0.799			-0.799
291100.000			0.799			-0.799
291200.000			0.799			-0.799
291301.000			0.799			-0.799
291400.000			0.798			-0.798
291500.000			0.798			-0.798
291602.000			0.798			-0.798
291701.000			0.798			-0.798
291801.000			0.799			-0.799
291901.000			0.798			-0.798
292000.000			0.799			-0.799
292101.000			0.799			-0.799
292200.000			0.800			-0.800
292300.000			0.799			-0.799
292401.000			0.798			-0.798
292501.000			0.798			-0.798
292601.000			0.799			-0.799
292702.000			0.799			-0.799
292800.000			0.798			-0.798
292900.000			0.798			-0.798
293001.000			0.799			-0.799
293100.000			0.799			-0.799
293200.000			0.799			-0.799
293301.000			0.799			-0.799
293401.000			0.799			-0.799
293501.000			0.799			-0.799
293602.000			0.799			-0.799
293700.000			0.798			-0.798
293800.000			0.799			-0.799
293901.000			0.798			-0.798
294000.000			0.799			-0.799
294100.000			0.799			-0.799
294201.000			0.799			-0.799
294301.000			0.798			-0.798
294401.000			0.798			-0.798
294502.000			0.798			-0.798
294600.000			0.799			-0.799
294700.000			0.800			-0.800
294801.000			0.799			-0.799
294900.000			0.800			-0.800
295000.000			0.798			-0.798
295101.000			0.798			-0.798
295201.000			0.799			-0.799
295302.000			0.798			-0.798
295401.000			0.798			-0.798
295500.000			0.798			-0.798
295601.000			0.798			-0.798
295700.000			0.799			-0.799
295800.000			0.800			-0.800
295901.000			0.800			-0.800
296000.000			0.800			-0.800
296101.000			0.800			-0.800
296202.000			0.799			-0.799
296301.000			0.799			-0.799
296400.000			0.800			-0.800
296501.000			0.799			-0.799
296600.000			0.798			-0.798
296700.000			0.799			-0.799
296801.000			0.800			-0.800
296900.000			0.800			-0.800
297001.000			0.800			-0.800
297102.000			0.800			-0.800
297201.000			0.801			-0.801
297300.000			0.800			-0.800
297401.000			0.800			-0.800
297500.000			0.800			-0.800
297600.000			0.800			-0.800
297701.000			0.800			-0.800
297800.000			0.800			-0.800
297901.000			0.801			-0.801
298002.000			0.801			-0.801
298100.000			0.801			-0.801
298200.000			0.801			-0.801
298301.000			0.801			-0.801
298400.000			0.800			-0.800
298501.000			0.800			-0.800
298600.000			0.800			-0.800
298700.000			0.802			-0.802
298802.000			0.802			-0.802
298901.000			0.802			-0.802
299000.000			0.801			-0.801
299101.000			0.801			-0.801
299200.000			0.801			-0.801
299300.000			0.801			-0.801
299401.000			0.803			-0.803
299500.000			0.802			-0.802
299601.000			0.802			-0.802
299702.000			0.802			-0.802
299800.000			0.802			-0.802
299900.000			0.802			-0.802
