# Acquired on 27/08/2024 15:12:27 
# SPIDER: CNT0771454B-1_24h_PostRodaggio_2024-08-27
# TRACKING MEASUREMENT

  # pos [mm]    force [N]     time [ms]
     0.49561     -0.19509     249.00000
     0.49561     -0.84938     350.00000
     0.49561     -1.31102     450.00000
     0.49561     -1.29067     551.00000
     0.49561     -1.27887     650.00000
     0.49561     -1.26947     750.00000
     0.49561     -1.26112     851.00000
     0.49561     -1.25436     950.00000
     0.49561     -1.24923    1051.00000
     0.49561     -1.24456    1150.00000
    -0.49316      0.76190    1962.00000
    -0.49316      1.45541    2063.00000
    -0.49316      1.68677    2164.00000
    -0.49316      1.67110    2263.00000
    -0.49316      1.65162    2363.00000
    -0.49316      1.63903    2464.00000
    -0.49316      1.62212    2563.00000
    -0.49316      1.61637    2663.00000
    -0.49316      1.60975    2764.00000
    -0.49316      1.60464    2863.00000
    -0.00488      1.15324    3464.00000
    -0.00488      0.37995    3565.00000
    -0.00488      0.07422    3666.00000
    -0.00488      0.06393    3765.00000
    -0.00488      0.07482    3865.00000
    -0.00488      0.08751    3966.00000
    -0.00488      0.09086    4065.00000
    -0.00488      0.09554    4166.00000
    -0.00488      0.09856    4265.00000
    -0.00488      0.10140    4365.00000
     0.99365     -1.55999    4764.00000
     0.99365     -2.39066    4864.00000
     0.99365     -2.55348    4964.00000
     0.99365     -2.52525    5065.00000
     0.99365     -2.50250    5164.00000
     0.99365     -2.48537    5264.00000
     0.99365     -2.47143    5365.00000
     0.99365     -2.45090    5464.00000
     0.99365     -2.44347    5564.00000
     0.99365     -2.43637    5665.00000
    -0.99365      2.04699    6616.00000
    -0.99365      2.88687    6717.00000
    -0.99365      3.06447    6818.00000
    -0.99365      3.03300    6917.00000
    -0.99365      3.00555    7017.00000
    -0.99365      2.98650    7118.00000
    -0.99365      2.95908    7217.00000
    -0.99365      2.94933    7317.00000
    -0.99365      2.94093    7418.00000
    -0.99365      2.93315    7517.00000
    -0.00488      2.23245    8180.00000
    -0.00488      0.11588    8280.00000
    -0.00488     -0.01523    8380.00000
    -0.00488      0.00279    8481.00000
    -0.00488      0.01914    8580.00000
    -0.00488      0.02965    8680.00000
    -0.00488      0.03875    8781.00000
    -0.00488      0.04586    8880.00000
    -0.00488      0.05431    8980.00000
    -0.00488      0.05847    9081.00000
     1.49414     -2.48967    9539.00000
     1.49414     -3.52049    9640.00000
     1.49414     -3.78997    9739.00000
     1.49414     -3.77082    9840.00000
     1.49414     -3.73564    9939.00000
     1.49414     -3.69323   10039.00000
     1.49414     -3.67848   10140.00000
     1.49414     -3.66594   10239.00000
     1.49414     -3.65471   10339.00000
     1.49414     -3.64560   10440.00000
    -1.49414      2.69779   11495.00000
    -1.49414      3.94190   11596.00000
    -1.49414      4.37110   11695.00000
    -1.49414      4.33616   11795.00000
    -1.49414      4.30796   11896.00000
    -1.49414      4.28551   11995.00000
    -1.49414      4.26714   12095.00000
    -1.49414      4.25201   12196.00000
    -1.49414      4.23726   12295.00000
    -1.49414      4.22624   12395.00000
    -0.00488      0.86294   13113.00000
    -0.00488      0.07368   13214.00000
    -0.00488     -0.07101   13313.00000
    -0.00488     -0.05013   13413.00000
    -0.00488     -0.02808   13514.00000
    -0.00488     -0.01398   13613.00000
    -0.00488     -0.00183   13713.00000
    -0.00488      0.01536   13814.00000
    -0.00488      0.02079   13913.00000
    -0.00488      0.02616   14013.00000
     1.99463     -4.26042   14516.00000
     1.99463     -4.93342   14616.00000
     1.99463     -5.02560   14717.00000
     1.99463     -4.98092   14816.00000
     1.99463     -4.94626   14917.00000
     1.99463     -4.91959   15016.00000
     1.99463     -4.89963   15116.00000
     1.99463     -4.86923   15217.00000
     1.99463     -4.85540   15316.00000
     1.99463     -4.84352   15416.00000
    -1.99463      4.53878   16564.00000
    -1.99463      5.49199   16664.00000
    -1.99463      5.70606   16765.00000
    -1.99463      5.66459   16864.00000
    -1.99463      5.62126   16965.00000
    -1.99463      5.56558   17064.00000
    -1.99463      5.54467   17164.00000
    -1.99463      5.52738   17265.00000
    -1.99463      5.51168   17364.00000
    -1.99463      5.49726   17464.00000
    -0.00488      0.94042   18230.00000
    -0.00488      0.07490   18331.00000
    -0.00488     -0.11832   18430.00000
    -0.00488     -0.09924   18530.00000
    -0.00488     -0.07320   18631.00000
    -0.00488     -0.03986   18730.00000
    -0.00488     -0.02795   18830.00000
    -0.00488     -0.02022   18931.00000
    -0.00488     -0.01320   19030.00000
    -0.00488     -0.00531   19130.00000
     2.49268     -4.61634   19663.00000
     2.49268     -5.85311   19764.00000
     2.49268     -6.23597   19864.00000
     2.49268     -6.17540   19965.00000
     2.49268     -6.14098   20064.00000
     2.49268     -6.11448   20165.00000
     2.49268     -6.09136   20264.00000
     2.49268     -6.07209   20364.00000
     2.49268     -6.05661   20465.00000
     2.49268     -6.04159   20564.00000
    -2.49512      5.33028   21772.00000
    -2.49512      6.60556   21874.00000
    -2.49512      7.00509   21973.00000
    -2.49512      6.93409   22073.00000
    -2.49512      6.89346   22174.00000
    -2.49512      6.86361   22273.00000
    -2.49512      6.83757   22373.00000
    -2.49512      6.81515   22474.00000
    -2.49512      6.79713   22573.00000
    -2.49512      6.77962   22673.00000
    -0.00488      1.96811   23470.00000
    -0.00488     -0.09716   23570.00000
    -0.00488     -0.16440   23671.00000
    -0.00488     -0.13020   23770.00000
    -0.00488     -0.10457   23870.00000
    -0.00488     -0.08538   23971.00000
    -0.00488     -0.07099   24070.00000
    -0.00488     -0.05815   24170.00000
    -0.00488     -0.03897   24271.00000
    -0.00488     -0.03146   24370.00000
     2.99316     -5.85192   24946.00000
     2.99316     -7.05807   25047.00000
     2.99316     -7.42189   25147.00000
     2.99316     -7.36645   25248.00000
     2.99316     -7.32763   25347.00000
     2.99316     -7.29759   25447.00000
     2.99316     -7.27233   25548.00000
     2.99316     -7.24958   25647.00000
     2.99316     -7.23143   25747.00000
     2.99316     -7.21484   25848.00000
    -2.99072      6.56517   27146.00000
    -2.99072      7.87350   27248.00000
    -2.99072      8.28872   27347.00000
    -2.99072      8.22592   27447.00000
    -2.99072      8.18223   27548.00000
    -2.99072      8.14760   27647.00000
    -2.99072      8.11750   27747.00000
    -2.99072      8.09168   27848.00000
    -2.99072      8.06933   27947.00000
    -2.99072      8.03367   28047.00000
    -0.00488      1.04205   28887.00000
    -0.00488      0.06007   28987.00000
    -0.00488     -0.20649   29088.00000
    -0.00488     -0.19158   29187.00000
    -0.00488     -0.13112   29287.00000
    -0.00488     -0.11186   29388.00000
    -0.00488     -0.09673   29487.00000
    -0.00488     -0.08468   29587.00000
    -0.00488     -0.07331   29688.00000
    -0.00488     -0.06472   29787.00000
     3.49121     -7.12856   30399.00000
     3.49121     -8.27128   30500.00000
     3.49121     -8.60024   30599.00000
     3.49121     -8.54059   30699.00000
     3.49121     -8.49915   30800.00000
     3.49121     -8.46519   30899.00000
     3.49121     -8.43596   30999.00000
     3.49121     -8.41216   31100.00000
     3.49121     -8.39279   31199.00000
     3.49121     -8.35565   31299.00000
    -3.49365      8.21184   32673.00000
    -3.49365      9.31636   32774.00000
    -3.49365      9.61912   32874.00000
    -3.49365      9.51555   32975.00000
    -3.49365      9.46746   33074.00000
    -3.49365      9.42869   33174.00000
    -3.49365      9.39638   33275.00000
    -3.49365      9.36901   33374.00000
    -3.49365      9.34519   33474.00000
    -3.49365      9.32414   33575.00000
    -0.00488      1.29561   34449.00000
    -0.00488     -0.22576   34551.00000
    -0.00488     -0.24445   34649.00000
    -0.00488     -0.20293   34750.00000
    -0.00488     -0.17381   34851.00000
    -0.00488     -0.15219   34950.00000
    -0.00488     -0.13339   35050.00000
    -0.00488     -0.11891   35151.00000
    -0.00488     -0.10559   35250.00000
    -0.00488     -0.08636   35350.00000
     3.99414     -8.87631   35986.00000
     3.99414     -9.66765   36088.00000
     3.99414     -9.81388   36187.00000
     3.99414     -9.75121   36287.00000
     3.99414     -9.69393   36388.00000
     3.99414     -9.61789   36487.00000
     3.99414     -9.58882   36587.00000
     3.99414     -9.56299   36688.00000
     3.99414     -9.54130   36787.00000
     3.99414     -9.52087   36887.00000
    -3.99170      9.37728   38303.00000
    -3.99170     10.57498   38404.00000
    -3.99170     10.92980   38504.00000
    -3.99170     10.82220   38605.00000
    -3.99170     10.76884   38704.00000
    -3.99170     10.72624   38804.00000
    -3.99170     10.69015   38905.00000
    -3.99170     10.65884   39004.00000
    -3.99170     10.63293   39104.00000
    -3.99170     10.60886   39205.00000
    -0.00488      0.41929   40098.00000
    -0.00488     -0.19488   40199.00000
    -0.00488     -0.29448   40299.00000
    -0.00488     -0.25150   40400.00000
    -0.00488     -0.21533   40499.00000
    -0.00488     -0.18810   40599.00000
    -0.00488     -0.16667   40700.00000
    -0.00488     -0.13520   40799.00000
    -0.00488     -0.12237   40898.00000
    -0.00488     -0.11162   41000.00000
     4.49463    -10.47203   41678.00000
     4.49463    -10.94272   41779.00000
     4.49463    -10.97030   41879.00000
     4.49463    -10.90020   41980.00000
     4.49463    -10.84408   42079.00000
     4.49463    -10.80175   42179.00000
     4.49463    -10.76701   42280.00000
     4.49463    -10.70925   42379.00000
     4.49463    -10.68683   42480.00000
     4.49463    -10.66581   42579.00000
    -4.49463     11.55464   44062.00000
    -4.49463     12.16251   44162.00000
    -4.49463     12.22535   44262.00000
    -4.49463     12.14571   44363.00000
    -4.49463     12.08079   44462.00000
    -4.49463     12.03027   44562.00000
    -4.49463     11.95298   44663.00000
    -4.49463     11.92121   44762.00000
    -4.49463     11.89430   44862.00000
    -4.49463     11.86950   44963.00000
    -0.00488      1.48369   45880.00000
    -0.00488     -0.27984   45981.00000
    -0.00488     -0.32533   46080.00000
    -0.00488     -0.27817   46180.00000
    -0.00488     -0.24116   46281.00000
    -0.00488     -0.21317   46380.00000
    -0.00488     -0.19139   46480.00000
    -0.00488     -0.17308   46581.00000
    -0.00488     -0.14441   46680.00000
    -0.00488     -0.13307   46780.00000
     4.99512    -11.60081   47484.00000
     4.99512    -12.11183   47584.00000
     4.99512    -12.14368   47685.00000
     4.99512    -12.06596   47784.00000
     4.99512    -12.00577   47884.00000
     4.99512    -11.95982   47985.00000
     4.99512    -11.87352   48084.00000
     4.99512    -11.83352   48260.00000
     4.99512    -11.81153   48348.00000
     4.99512    -11.78943   48435.00000
    -4.99268     12.15500   49910.00000
    -4.99268     13.24753   50010.00000
    -4.99268     13.49593   50110.00000
    -4.99268     13.41124   50211.00000
    -4.99268     13.34805   50310.00000
    -4.99268     13.29799   50410.00000
    -4.99268     13.25752   50511.00000
    -4.99268     13.22129   50610.00000
    -4.99268     13.18885   50710.00000
    -4.99268     13.13482   50811.00000
    -0.00488      0.05828   51777.00000
    -0.00488     -0.32939   51879.00000
    -0.00488     -0.35681   51978.00000
    -0.00488     -0.30864   52078.00000
    -0.00488     -0.27039   52178.00000
    -0.00488     -0.24245   52278.00000
    -0.00488     -0.21957   52379.00000
    -0.00488     -0.18332   52478.00000
    -0.00488     -0.17102   52578.00000
    -0.00488     -0.16000   52679.00000
     5.49316    -12.38364   53399.00000
     5.49316    -13.17616   53501.00000
     5.49316    -13.33017   53600.00000
     5.49316    -13.25699   53701.00000
     5.49316    -13.12802   53800.00000
     5.49316    -13.08317   53900.00000
     5.49316    -13.04578   54001.00000
     5.49316    -13.01250   54100.00000
     5.49316    -12.98413   54200.00000
     5.49316    -12.95814   54301.00000
    -5.49316     13.25615   55886.00000
    -5.49316     14.48867   55987.00000
    -5.49316     14.82571   56087.00000
    -5.49316     14.73170   56188.00000
    -5.49316     14.66505   56287.00000
    -5.49316     14.61024   56387.00000
    -5.49316     14.56374   56488.00000
    -5.49316     14.52487   56587.00000
    -5.49316     14.49023   56688.00000
    -5.49316     14.43169   56787.00000
    -0.00488      0.21430   57761.00000
    -0.00488     -0.32679   57861.00000
    -0.00488     -0.40103   57961.00000
    -0.00488     -0.34857   58062.00000
    -0.00488     -0.30475   58161.00000
    -0.00488     -0.27174   58261.00000
    -0.00488     -0.24618   58362.00000
    -0.00488     -0.20847   58461.00000
    -0.00488     -0.19266   58561.00000
    -0.00488     -0.17934   58662.00000
     5.99365    -13.06496   59413.00000
     5.99365    -14.48719   59514.00000
     5.99365    -14.45606   59613.00000
     5.99365    -14.36837   59713.00000
     5.99365    -14.30343   59814.00000
     5.99365    -14.25059   59913.00000
     5.99365    -14.20696   60013.00000
     5.99365    -14.16976   60114.00000
     5.99365    -14.10781   60213.00000
     5.99365    -14.08263   60313.00000
    -5.99365     14.93901   61943.00000
    -5.99365     15.98275   62044.00000
    -5.99365     16.25031   62144.00000
    -5.99365     16.08057   62245.00000
    -5.99365     16.01187   62344.00000
    -5.99365     15.95611   62444.00000
    -5.99365     15.90813   62545.00000
    -5.99365     15.86799   62644.00000
    -5.99365     15.83006   62744.00000
    -5.99365     15.79664   62845.00000
    -0.00488      0.36747   63860.00000
    -0.00488     -0.28738   63961.00000
    -0.00488     -0.43202   64061.00000
    -0.00488     -0.39460   64162.00000
    -0.00488     -0.30894   64261.00000
    -0.00488     -0.28116   64361.00000
    -0.00488     -0.25642   64462.00000
    -0.00488     -0.23727   64561.00000
    -0.00488     -0.22184   64661.00000
    -0.00488     -0.20703   64762.00000
     6.49414    -14.72498   65543.00000
     6.49414    -15.51455   65644.00000
     6.49414    -15.68051   65745.00000
     6.49414    -15.51990   65844.00000
     6.49414    -15.45504   65944.00000
     6.49414    -15.40225   66045.00000
     6.49414    -15.35711   66144.00000
     6.49414    -15.31961   66245.00000
     6.49414    -15.28519   66344.00000
     6.49414    -15.25415   66444.00000
    -6.49414     17.12364   68134.00000
    -6.49414     17.62075   68235.00000
    -6.49414     17.62034   68336.00000
    -6.49414     17.50849   68435.00000
    -6.49414     17.42521   68535.00000
    -6.49414     17.36053   68636.00000
    -6.49414     17.30693   68735.00000
    -6.49414     17.21835   68835.00000
    -6.49414     17.18153   68936.00000
    -6.49414     17.14860   69035.00000
    -0.00488      0.04278   70057.00000
    -0.00488     -0.42151   70158.00000
    -0.00488     -0.46460   70259.00000
    -0.00488     -0.40697   70358.00000
    -0.00488     -0.36078   70458.00000
    -0.00488     -0.32460   70559.00000
    -0.00488     -0.29586   70658.00000
    -0.00488     -0.25434   70757.00000
    -0.00488     -0.23751   70859.00000
    -0.00488     -0.22319   70958.00000
     6.99463    -16.20353   71746.00000
     6.99463    -16.81756   71848.00000
     6.99463    -16.87383   71947.00000
     6.99463    -16.76971   72048.00000
     6.99463    -16.68324   72147.00000
     6.99463    -16.61754   72247.00000
     6.99463    -16.51607   72348.00000
     6.99463    -16.47616   72447.00000
     6.99463    -16.43959   72547.00000
     6.99463    -16.40598   72648.00000
    -6.99463     18.32712   74379.00000
    -6.99463     19.04154   74481.00000
    -6.99463     19.10621   74580.00000
    -6.99463     18.98618   74680.00000
    -6.99463     18.89160   74781.00000
    -6.99463     18.81844   74880.00000
    -6.99463     18.70598   74980.00000
    -6.99463     18.65919   75081.00000
    -6.99463     18.61778   75180.00000
    -6.99463     18.58171   75280.00000
    -0.00488      0.30880   76339.00000
    -0.00488     -0.35516   76440.00000
    -0.00488     -0.50328   76540.00000
    -0.00488     -0.45920   76640.00000
    -0.00488     -0.36407   76741.00000
    -0.00488     -0.33171   76840.00000
    -0.00488     -0.30683   76940.00000
    -0.00488     -0.28565   77041.00000
    -0.00488     -0.26679   77140.00000
    -0.00488     -0.25029   77239.00000
     7.49512    -17.64777   78053.00000
     7.49512    -18.08525   78154.00000
     7.49512    -18.06088   78253.00000
     7.49512    -17.94701   78353.00000
     7.49512    -17.86116   78454.00000
     7.49512    -17.79243   78553.00000
     7.49512    -17.73503   78653.00000
     7.49512    -17.64247   78754.00000
     7.49512    -17.60432   78853.00000
     7.49512    -17.57029   78953.00000
    -7.49268     19.40000   80734.00000
    -7.49268     20.43342   80835.00000
    -7.49268     20.65416   80936.00000
    -7.49268     20.54532   81035.00000
    -7.49268     20.34835   81136.00000
    -7.49268     20.27897   81235.00000
    -7.49268     20.22095   81335.00000
    -7.49268     20.17027   81436.00000
    -7.49268     20.12466   81535.00000
    -7.49268     20.08398   81635.00000
    -0.00488     -0.12132   82712.00000
    -0.00488     -0.49888   82814.00000
    -0.00488     -0.52279   82913.00000
    -0.00488     -0.46152   83014.00000
    -0.00488     -0.41195   83113.00000
    -0.00488     -0.37529   83213.00000
    -0.00488     -0.34652   83314.00000
    -0.00488     -0.29916   83413.00000
    -0.00488     -0.28068   83513.00000
    -0.00488     -0.26425   83614.00000
     7.99316    -18.00839   84444.00000
     7.99316    -19.05183   84544.00000
     7.99316    -19.23846   84645.00000
     7.99316    -19.12191   84744.00000
     7.99316    -19.03398   84844.00000
     7.99316    -18.96379   84945.00000
     7.99316    -18.90328   85044.00000
     7.99316    -18.85033   85144.00000
     7.99316    -18.80656   85245.00000
     7.99316    -18.72897   85344.00000
    -7.99316     20.63139   87163.00000
    -7.99316     21.92043   87264.00000
    -7.99316     22.17551   87365.00000
    -7.99316     22.04459   87464.00000
    -7.99316     21.94955   87564.00000
    -7.99316     21.87226   87665.00000
    -7.99316     21.80739   87764.00000
    -7.99316     21.75085   87864.00000
    -7.99316     21.69955   87965.00000
    -7.99316     21.65279   88064.00000
    -0.00488      0.13720   89160.00000
    -0.00488     -0.45077   89260.00000
    -0.00488     -0.56577   89360.00000
    -0.00488     -0.51158   89461.00000
    -0.00488     -0.45476   89560.00000
    -0.00488     -0.37939   89660.00000
    -0.00488     -0.35141   89761.00000
    -0.00488     -0.32752   89860.00000
    -0.00488     -0.30750   89960.00000
    -0.00488     -0.29132   90061.00000
     8.49365    -19.80427   90910.00000
     8.49365    -20.47722   91010.00000
     8.49365    -20.53322   91110.00000
     8.49365    -20.39817   91211.00000
     8.49365    -20.28581   91310.00000
     8.49365    -20.12742   91410.00000
     8.49365    -20.06715   91511.00000
     8.49365    -20.01399   91610.00000
     8.49365    -19.96703   91710.00000
     8.49365    -19.92424   91811.00000
    -8.49365     22.28884   93664.00000
    -8.49365     23.63898   93765.00000
    -8.49365     24.00628   93864.00000
    -8.49365     23.76390   93964.00000
    -8.49365     23.66232   94065.00000
    -8.49365     23.57844   94164.00000
    -8.49365     23.50728   94264.00000
    -8.49365     23.44445   94365.00000
    -8.49365     23.38885   94464.00000
    -8.49365     23.34016   94564.00000
    -0.00488      0.28089   95683.00000
    -0.00488     -0.41824   95785.00000
    -0.00488     -0.59838   95884.00000
    -0.00488     -0.49561   95985.00000
    -0.00488     -0.44879   96084.00000
    -0.00488     -0.41200   96184.00000
    -0.00488     -0.38226   96285.00000
    -0.00488     -0.35702   96384.00000
    -0.00488     -0.33536   96484.00000
    -0.00488     -0.31539   96585.00000
     8.99414    -21.48168   97469.00000
     8.99414    -21.79233   97571.00000
     8.99414    -21.71279   97670.00000
     8.99414    -21.57137   97770.00000
     8.99414    -21.46339   97871.00000
     8.99414    -21.37767   97970.00000
     8.99414    -21.30599   98070.00000
     8.99414    -21.24437   98171.00000
     8.99414    -21.14107   98270.00000
     8.99414    -21.09727   98370.00000
    -8.99170     24.03468  100268.00000
    -8.99170     25.84211  100369.00000
    -8.99170     25.75566  100470.00000
    -8.99170     25.60408  100569.00000
    -8.99170     25.49178  100669.00000
    -8.99170     25.40038  100770.00000
    -8.99170     25.32296  100869.00000
    -8.99170     25.25512  100969.00000
    -8.99170     25.19639  101070.00000
    -8.99170     25.09581  101169.00000
    -0.00488      0.68609  102295.00000
    -0.00488     -0.61664  102396.00000
    -0.00488     -0.61364  102495.00000
    -0.00488     -0.54313  102595.00000
    -0.00488     -0.48956  102696.00000
    -0.00488     -0.44917  102795.00000
    -0.00488     -0.41478  102896.00000
    -0.00488     -0.38706  102995.00000
    -0.00488     -0.34338  103095.00000
    -0.00488     -0.32466  103196.00000
     9.49219    -22.42462  104075.00000
     9.49219    -23.05159  104176.00000
     9.49219    -23.04894  104275.00000
     9.49219    -22.88237  104375.00000
     9.49219    -22.75267  104476.00000
     9.49219    -22.65201  104575.00000
     9.49219    -22.49705  104675.00000
     9.49219    -22.43540  104776.00000
     9.49219    -22.37969  104875.00000
     9.49219    -22.32974  104975.00000
    -9.49463     26.54756  106896.00000
    -9.49463     27.67818  106998.00000
    -9.49463     27.83444  107097.00000
    -9.49463     27.65627  107197.00000
    -9.49463     27.50996  107298.00000
    -9.49463     27.30570  107397.00000
    -9.49463     27.22611  107497.00000
    -9.49463     27.15679  107598.00000
    -9.49463     27.09560  107697.00000
    -9.49463     27.03935  107797.00000
    -0.00488      0.21141  108955.00000
    -0.00488     -0.48537  109054.00000
    -0.00488     -0.66389  109154.00000
    -0.00488     -0.55159  109255.00000
    -0.00488     -0.50145  109354.00000
    -0.00488     -0.46201  109454.00000
    -0.00488     -0.42905  109554.00000
    -0.00488     -0.40168  109654.00000
    -0.00488     -0.37788  109754.00000
    -0.00488     -0.35737  109855.00000
     9.99268    -23.72454  110765.00000
     9.99268    -24.36962  110865.00000
     9.99268    -24.38656  110966.00000
     9.99268    -24.21263  111065.00000
     9.99268    -24.06885  111165.00000
     9.99268    -23.86773  111266.00000
     9.99268    -23.78949  111365.00000
     9.99268    -23.72154  111465.00000
     9.99268    -23.66108  111566.00000
     9.99268    -23.60819  111665.00000
    -9.99268     27.75812  113618.00000
    -9.99268     29.45936  113719.00000
    -9.99268     29.84379  113820.00000
    -9.99268     29.65476  113919.00000
    -9.99268     29.52152  114019.00000
    -9.99268     29.41381  114120.00000
    -9.99268     29.32339  114219.00000
    -9.99268     29.24472  114319.00000
    -9.99268     29.17394  114420.00000
    -9.99268     29.05380  114519.00000
    -0.00488     -0.10459  115706.00000
    -0.00488     -0.60122  115807.00000
    -0.00488     -0.69142  115907.00000
    -0.00488     -0.56782  116008.00000
    -0.00488     -0.51879  116107.00000
    -0.00488     -0.48030  116208.00000
    -0.00488     -0.44812  116307.00000
    -0.00488     -0.42056  116407.00000
    -0.00488     -0.39711  116508.00000
    -0.00488     -0.37677  116607.00000
    10.49072    -25.00783  117549.00000
    10.49072    -25.74310  117649.00000
    10.49072    -25.80446  117750.00000
    10.49072    -25.62732  117849.00000
    10.49072    -25.34600  117949.00000
    10.49072    -25.24589  118050.00000
    10.49072    -25.16071  118149.00000
    10.49072    -25.08641  118249.00000
    10.49072    -25.01993  118350.00000
    10.49072    -24.96166  118449.00000
   -10.49072     30.76631  120451.00000
   -10.49072     32.02393  120551.00000
   -10.49072     32.23532  120652.00000
   -10.49072     32.02757  120751.00000
   -10.49072     31.70922  120851.00000
   -10.49072     31.59835  120952.00000
   -10.49072     31.50442  121051.00000
   -10.49072     31.42259  121151.00000
   -10.49072     31.34941  121252.00000
   -10.49072     31.28254  121351.00000
    -0.00488     -0.18477  122562.00000
    -0.00488     -0.64379  122664.00000
    -0.00488     -0.72403  122763.00000
    -0.00488     -0.59954  122864.00000
    -0.00488     -0.54962  122963.00000
    -0.00488     -0.50923  123063.00000
    -0.00488     -0.47589  123164.00000
    -0.00488     -0.44806  123263.00000
    -0.00488     -0.42400  123363.00000
    -0.00488     -0.40300  123464.00000
    10.99365    -26.22454  124410.00000
    10.99365    -27.21582  124510.00000
    10.99365    -27.36889  124610.00000
    10.99365    -27.00078  124711.00000
    10.99365    -26.86303  124810.00000
    10.99365    -26.75170  124910.00000
    10.99365    -26.65663  125011.00000
    10.99365    -26.57429  125110.00000
    10.99365    -26.50223  125211.00000
    10.99365    -26.43670  125310.00000
   -10.99365     33.53857  127366.00000
   -10.99365     34.64641  127466.00000
   -10.99365     34.70352  127567.00000
   -10.99365     34.44553  127666.00000
   -10.99365     34.25920  127766.00000
   -10.99365     34.11923  127867.00000
   -10.99365     33.90238  127966.00000
   -10.99365     33.81283  128066.00000
   -10.99365     33.73257  128167.00000
   -10.99365     33.66051  128266.00000
    -0.00488     -0.33036  129471.00000
    -0.00488     -0.72106  129572.00000
    -0.00488     -0.75488  129672.00000
    -0.00488     -0.68099  129772.00000
    -0.00488     -0.61580  129873.00000
    -0.00488     -0.56623  129972.00000
    -0.00488     -0.49367  130072.00000
    -0.00488     -0.46536  130173.00000
    -0.00488     -0.44039  130272.00000
    -0.00488     -0.41932  130373.00000
    10.99365    -26.46544  131319.00000
    10.99365    -27.11270  131420.00000
    10.99365    -27.09433  131520.00000
    10.99365    -26.89477  131621.00000
    10.99365    -26.73589  131720.00000
    10.99365    -26.61278  131820.00000
    10.99365    -26.42316  131921.00000
    10.99365    -26.34717  132021.00000
    10.99365    -26.28003  132120.00000
    10.99365    -26.22019  132221.00000
   -10.99121     32.04316  134270.00000
   -10.99121     34.01085  134371.00000
   -10.99121     34.41813  134472.00000
   -10.99121     34.18613  134571.00000
   -10.99121     34.02941  134671.00000
   -10.99121     33.90173  134772.00000
   -10.99121     33.79486  134871.00000
   -10.99121     33.70185  134971.00000
   -10.99121     33.61794  135072.00000
   -10.99121     33.47678  135171.00000
    -0.00488      0.12099  136376.00000
    -0.00488     -0.58182  136477.00000
    -0.00488     -0.73670  136576.00000
    -0.00488     -0.66287  136676.00000
    -0.00488     -0.60667  136777.00000
    -0.00488     -0.56099  136876.00000
    -0.00488     -0.52363  136976.00000
    -0.00488     -0.49199  137077.00000
    -0.00488     -0.46573  137176.00000
    -0.00488     -0.42118  137276.00000
    10.49316    -24.15395  138218.00000
    10.49316    -25.07234  138319.00000
    10.49316    -25.08755  138418.00000
    10.49316    -24.92159  138518.00000
    10.49316    -24.79732  138619.00000
    10.49316    -24.69758  138719.00000
    10.49316    -24.61410  138818.00000
    10.49316    -24.54176  138919.00000
    10.49316    -24.47708  139018.00000
    10.49316    -24.41919  139118.00000
   -10.49072     29.84438  141120.00000
   -10.49072     31.39287  141221.00000
   -10.49072     31.61821  141320.00000
   -10.49072     31.41838  141420.00000
   -10.49072     31.28254  141521.00000
   -10.49072     31.17191  141620.00000
   -10.49072     31.07814  141720.00000
   -10.49072     30.99596  141821.00000
   -10.49072     30.92418  141920.00000
   -10.49072     30.80162  142021.00000
    -0.00488     -0.10581  143230.00000
    -0.00488     -0.64652  143331.00000
    -0.00488     -0.71417  143432.00000
    -0.00488     -0.64552  143531.00000
    -0.00488     -0.59249  143631.00000
    -0.00488     -0.54910  143732.00000
    -0.00488     -0.51468  143831.00000
    -0.00488     -0.48578  143931.00000
    -0.00488     -0.46033  144032.00000
    -0.00488     -0.41751  144131.00000
     9.99268    -22.88515  145041.00000
     9.99268    -23.55883  145143.00000
     9.99268    -23.59714  145242.00000
     9.99268    -23.42200  145342.00000
     9.99268    -23.27593  145443.00000
     9.99268    -23.07739  145542.00000
     9.99268    -23.00399  145642.00000
     9.99268    -22.93891  145743.00000
     9.99268    -22.88034  145842.00000
     9.99268    -22.82850  145942.00000
    -9.99512     27.04824  147895.00000
    -9.99512     29.31998  147997.00000
    -9.99512     29.22060  148096.00000
    -9.99512     29.03316  148196.00000
    -9.99512     28.90208  148297.00000
    -9.99512     28.79575  148396.00000
    -9.99512     28.70655  148496.00000
    -9.99512     28.62980  148597.00000
    -9.99512     28.56237  148696.00000
    -9.99512     28.44685  148796.00000
    -0.00488     -0.15841  149983.00000
    -0.00488     -0.66003  150085.00000
    -0.00488     -0.75523  150184.00000
    -0.00488     -0.62785  150284.00000
    -0.00488     -0.57701  150385.00000
    -0.00488     -0.53551  150484.00000
    -0.00488     -0.50131  150584.00000
    -0.00488     -0.47413  150685.00000
    -0.00488     -0.44890  150784.00000
    -0.00488     -0.42702  150884.00000
     9.49463    -20.63774  151764.00000
     9.49463    -22.16713  151865.00000
     9.49463    -22.05691  151966.00000
     9.49463    -21.89471  152065.00000
     9.49463    -21.77563  152165.00000
     9.49463    -21.68297  152266.00000
     9.49463    -21.60492  152365.00000
     9.49463    -21.53881  152465.00000
     9.49463    -21.42889  152566.00000
     9.49463    -21.38407  152665.00000
    -9.49463     26.27519  154587.00000
    -9.49463     27.04672  154688.00000
    -9.49463     27.03089  154789.00000
    -9.49463     26.84913  154888.00000
    -9.49463     26.71876  154988.00000
    -9.49463     26.61550  155089.00000
    -9.49463     26.52941  155188.00000
    -9.49463     26.45706  155288.00000
    -9.49463     26.33603  155389.00000
    -9.49463     26.28454  155488.00000
    -0.00488     -0.18966  156644.00000
    -0.00488     -0.66751  156746.00000
    -0.00488     -0.73548  156845.00000
    -0.00488     -0.66770  156945.00000
    -0.00488     -0.60413  157046.00000
    -0.00488     -0.51739  157145.00000
    -0.00488     -0.48475  157245.00000
    -0.00488     -0.45663  157346.00000
    -0.00488     -0.43340  157445.00000
    -0.00488     -0.41330  157545.00000
     8.99414    -19.86529  158432.00000
     8.99414    -20.65187  158533.00000
     8.99414    -20.66238  158632.00000
     8.99414    -20.52668  158732.00000
     8.99414    -20.42610  158833.00000
     8.99414    -20.34371  158932.00000
     8.99414    -20.27414  159032.00000
     8.99414    -20.21614  159133.00000
     8.99414    -20.16443  159232.00000
     8.99414    -20.07812  159332.00000
    -8.99414     23.77695  161230.00000
    -8.99414     24.81980  161330.00000
    -8.99414     25.01382  161430.00000
    -8.99414     24.73300  161531.00000
    -8.99414     24.63015  161630.00000
    -8.99414     24.54680  161730.00000
    -8.99414     24.47619  161831.00000
    -8.99414     24.41392  161930.00000
    -8.99414     24.35859  162030.00000
    -8.99414     24.30991  162131.00000
    -0.00488      0.16859  163256.00000
    -0.00488     -0.54140  163358.00000
    -0.00488     -0.72630  163457.00000
    -0.00488     -0.60764  163557.00000
    -0.00488     -0.55580  163658.00000
    -0.00488     -0.51487  163757.00000
    -0.00488     -0.48227  163857.00000
    -0.00488     -0.45458  163958.00000
    -0.00488     -0.43034  164057.00000
    -0.00488     -0.40941  164157.00000
     8.49365    -18.62108  165006.00000
     8.49365    -19.41049  165108.00000
     8.49365    -19.53652  165207.00000
     8.49365    -19.40344  165307.00000
     8.49365    -19.18294  165408.00000
     8.49365    -19.10735  165507.00000
     8.49365    -19.04376  165607.00000
     8.49365    -18.98875  165708.00000
     8.49365    -18.94056  165807.00000
     8.49365    -18.89760  165907.00000
    -8.49121     21.01220  167763.00000
    -8.49121     23.11894  167863.00000
    -8.49121     23.06593  167964.00000
    -8.49121     22.91319  168063.00000
    -8.49121     22.80348  168163.00000
    -8.49121     22.71665  168264.00000
    -8.49121     22.64568  168363.00000
    -8.49121     22.58428  168463.00000
    -8.49121     22.48202  168564.00000
    -8.49121     22.43882  168663.00000
    -0.00488      0.34016  169776.00000
    -0.00488     -0.45079  169877.00000
    -0.00488     -0.66594  169978.00000
    -0.00488     -0.59811  170077.00000
    -0.00488     -0.54678  170177.00000
    -0.00488     -0.50574  170278.00000
    -0.00488     -0.47184  170377.00000
    -0.00488     -0.44482  170477.00000
    -0.00488     -0.42086  170578.00000
    -0.00488     -0.38112  170677.00000
     7.99072    -17.44183  171502.00000
     7.99072    -18.20871  171604.00000
     7.99072    -18.32950  171703.00000
     7.99072    -18.20499  171804.00000
     7.99072    -18.00340  171903.00000
     7.99072    -17.93340  172003.00000
     7.99072    -17.87469  172104.00000
     7.99072    -17.82382  172203.00000
     7.99072    -17.77849  172303.00000
     7.99072    -17.73913  172404.00000
    -7.99072     20.29896  174221.00000
    -7.99072     21.23756  174322.00000
    -7.99072     21.38841  174421.00000
    -7.99072     21.24766  174521.00000
    -7.99072     21.12677  174622.00000
    -7.99072     20.96489  174721.00000
    -7.99072     20.90354  174821.00000
    -7.99072     20.85000  174922.00000
    -7.99072     20.80305  175021.00000
    -7.99072     20.76044  175121.00000
    -0.00488     -0.25515  176217.00000
    -0.00488     -0.63520  176318.00000
    -0.00488     -0.66070  176419.00000
    -0.00488     -0.59389  176518.00000
    -0.00488     -0.53824  176618.00000
    -0.00488     -0.49677  176719.00000
    -0.00488     -0.46317  176818.00000
    -0.00488     -0.41124  176918.00000
    -0.00488     -0.39031  177019.00000
    -0.00488     -0.37145  177118.00000
     7.49512    -16.17867  177931.00000
     7.49512    -16.99467  178032.00000
     7.49512    -17.15560  178131.00000
     7.49512    -16.94088  178231.00000
     7.49512    -16.85884  178332.00000
     7.49512    -16.79278  178431.00000
     7.49512    -16.73805  178531.00000
     7.49512    -16.69018  178632.00000
     7.49512    -16.64820  178731.00000
     7.49512    -16.61081  178831.00000
    -7.49512     19.09884  180613.00000
    -7.49512     19.72424  180713.00000
    -7.49512     19.74367  180814.00000
    -7.49512     19.60881  180913.00000
    -7.49512     19.50712  181013.00000
    -7.49512     19.42940  181114.00000
    -7.49512     19.36418  181213.00000
    -7.49512     19.25982  181313.00000
    -7.49512     19.21722  181414.00000
    -7.49512     19.17759  181513.00000
    -0.00488      0.19206  182595.00000
    -0.00488     -0.48186  182696.00000
    -0.00488     -0.60438  182796.00000
    -0.00488     -0.54267  182897.00000
    -0.00488     -0.49661  182996.00000
    -0.00488     -0.46090  183096.00000
    -0.00488     -0.43142  183197.00000
    -0.00488     -0.40627  183296.00000
    -0.00488     -0.38412  183396.00000
    -0.00488     -0.36507  183497.00000
     6.99463    -14.55073  184284.00000
     6.99463    -15.98778  184385.00000
     6.99463    -15.93680  184486.00000
     6.99463    -15.82804  184585.00000
     6.99463    -15.74534  184685.00000
     6.99463    -15.67937  184786.00000
     6.99463    -15.62437  184885.00000
     6.99463    -15.57882  184985.00000
     6.99463    -15.50275  185086.00000
     6.99463    -15.47195  185185.00000
    -6.99219     16.49264  186919.00000
    -6.99219     18.24823  187019.00000
    -6.99219     18.19974  187120.00000
    -6.99219     18.07758  187219.00000
    -6.99219     17.98821  187319.00000
    -6.99219     17.91813  187420.00000
    -6.99219     17.85951  187519.00000
    -6.99219     17.80931  187619.00000
    -6.99219     17.72670  187720.00000
    -6.99219     17.69187  187819.00000
    -0.00488     -0.16724  188878.00000
    -0.00488     -0.57425  188978.00000
    -0.00488     -0.61016  189078.00000
    -0.00488     -0.54862  189179.00000
    -0.00488     -0.49645  189278.00000
    -0.00488     -0.45709  189378.00000
    -0.00488     -0.39960  189479.00000
    -0.00488     -0.37558  189578.00000
    -0.00488     -0.35659  189678.00000
    -0.00488     -0.34098  189779.00000
     6.49414    -14.28725  190561.00000
     6.49414    -14.78800  190662.00000
     6.49414    -14.82266  190761.00000
     6.49414    -14.72343  190861.00000
     6.49414    -14.63934  190962.00000
     6.49414    -14.52266  191061.00000
     6.49414    -14.47895  191161.00000
     6.49414    -14.44072  191262.00000
     6.49414    -14.40638  191361.00000
     6.49414    -14.37621  191461.00000
    -6.49170     15.51244  193151.00000
    -6.49170     16.54626  193252.00000
    -6.49170     16.73921  193353.00000
    -6.49170     16.63015  193452.00000
    -6.49170     16.55318  193552.00000
    -6.49170     16.49094  193653.00000
    -6.49170     16.43812  193752.00000
    -6.49170     16.39300  193852.00000
    -6.49170     16.35321  193953.00000
    -6.49170     16.28495  194052.00000
    -0.00488      0.51052  195075.00000
    -0.00488     -0.33930  195175.00000
    -0.00488     -0.56266  195276.00000
    -0.00488     -0.50226  195375.00000
    -0.00488     -0.45676  195475.00000
    -0.00488     -0.42210  195576.00000
    -0.00488     -0.39458  195675.00000
    -0.00488     -0.37091  195775.00000
    -0.00488     -0.35013  195876.00000
    -0.00488     -0.33285  195975.00000
     5.99365    -12.88091  196728.00000
     5.99365    -13.58952  196828.00000
     5.99365    -13.71406  196928.00000
     5.99365    -13.62931  197029.00000
     5.99365    -13.48203  197128.00000
     5.99365    -13.42945  197228.00000
     5.99365    -13.38628  197329.00000
     5.99365    -13.35159  197428.00000
     5.99365    -13.31904  197528.00000
     5.99365    -13.28843  197629.00000
    -5.99365     14.69868  199257.00000
    -5.99365     15.35978  199357.00000
    -5.99365     15.42821  199458.00000
    -5.99365     15.31715  199557.00000
    -5.99365     15.23132  199657.00000
    -5.99365     15.11137  199758.00000
    -5.99365     15.06447  199857.00000
    -5.99365     15.02484  199957.00000
    -5.99365     14.98875  200058.00000
    -5.99365     14.95660  200157.00000
    -0.00488     -0.14752  201179.00000
    -0.00488     -0.51993  201280.00000
    -0.00488     -0.54667  201381.00000
    -0.00488     -0.49116  201480.00000
    -0.00488     -0.44347  201580.00000
    -0.00488     -0.40860  201681.00000
    -0.00488     -0.35643  201780.00000
    -0.00488     -0.33663  201880.00000
    -0.00488     -0.32001  201981.00000
    -0.00488     -0.30513  202080.00000
     5.49316    -11.53673  202801.00000
     5.49316    -12.40209  202902.00000
     5.49316    -12.60589  203003.00000
     5.49316    -12.45468  203102.00000
     5.49316    -12.39360  203202.00000
     5.49316    -12.34544  203303.00000
     5.49316    -12.30502  203402.00000
     5.49316    -12.26906  203502.00000
     5.49316    -12.23808  203603.00000
     5.49316    -12.21182  203702.00000
    -5.49316     12.26919  205289.00000
    -5.49316     14.08946  205390.00000
    -5.49316     14.07349  205489.00000
    -5.49316     13.97089  205589.00000
    -5.49316     13.89768  205690.00000
    -5.49316     13.83992  205789.00000
    -5.49316     13.79283  205889.00000
    -5.49316     13.75234  205990.00000
    -5.49316     13.68188  206089.00000
    -5.49316     13.65376  206189.00000
    -0.00488      0.17456  207163.00000
    -0.00488     -0.42281  207265.00000
    -0.00488     -0.52760  207364.00000
    -0.00488     -0.47511  207464.00000
    -0.00488     -0.42613  207565.00000
    -0.00488     -0.39047  207664.00000
    -0.00488     -0.33782  207764.00000
    -0.00488     -0.31799  207865.00000
    -0.00488     -0.29929  207964.00000
    -0.00488     -0.28511  208063.00000
     4.99268    -10.61016  208768.00000
     4.99268    -11.35022  208868.00000
     4.99268    -11.49102  208969.00000
     4.99268    -11.41884  209068.00000
     4.99268    -11.29295  209168.00000
     4.99268    -11.24883  209269.00000
     4.99268    -11.21176  209368.00000
     4.99268    -11.18035  209468.00000
     4.99268    -11.15227  209569.00000
     4.99268    -11.12726  209668.00000
    -4.99512     12.26455  211193.00000
    -4.99512     12.78367  211294.00000
    -4.99512     12.80267  211394.00000
    -4.99512     12.70895  211495.00000
    -4.99512     12.63890  211594.00000
    -4.99512     12.58527  211694.00000
    -4.99512     12.54032  211794.00000
    -4.99512     12.46616  211894.00000
    -4.99512     12.43631  211995.00000
    -4.99512     12.40954  212094.00000
    -0.00488      0.16875  213062.00000
    -0.00488     -0.38896  213163.00000
    -0.00488     -0.48829  213263.00000
    -0.00488     -0.44347  213364.00000
    -0.00488     -0.39703  213463.00000
    -0.00488     -0.33730  213563.00000
    -0.00488     -0.31377  213664.00000
    -0.00488     -0.29462  213763.00000
    -0.00488     -0.27944  213863.00000
    -0.00488     -0.26560  213964.00000
     4.49463     -9.64720  214642.00000
     4.49463    -10.26928  214742.00000
     4.49463    -10.36216  214842.00000
     4.49463    -10.29246  214943.00000
     4.49463    -10.23000  215042.00000
     4.49463    -10.14366  215142.00000
     4.49463    -10.10897  215243.00000
     4.49463    -10.08025  215342.00000
     4.49463    -10.05616  215442.00000
     4.49463    -10.03241  215543.00000
    -4.49463     10.62852  217024.00000
    -4.49463     11.40959  217125.00000
    -4.49463     11.55529  217224.00000
    -4.49463     11.47962  217324.00000
    -4.49463     11.35254  217425.00000
    -4.49463     11.30804  217524.00000
    -4.49463     11.27138  217624.00000
    -4.49463     11.23945  217725.00000
    -4.49463     11.21073  217824.00000
    -4.49463     11.18593  217925.00000
    -0.00488      0.23845  218842.00000
    -0.00488     -0.35754  218942.00000
    -0.00488     -0.45433  219043.00000
    -0.00488     -0.40546  219142.00000
    -0.00488     -0.36375  219242.00000
    -0.00488     -0.33182  219343.00000
    -0.00488     -0.30669  219442.00000
    -0.00488     -0.26752  219542.00000
    -0.00488     -0.25312  219643.00000
    -0.00488     -0.24118  219742.00000
     3.99170     -7.96795  220379.00000
     3.99170     -8.96725  220479.00000
     3.99170     -9.24767  220580.00000
     3.99170     -9.14120  220679.00000
     3.99170     -9.09211  220779.00000
     3.99170     -9.05418  220880.00000
     3.99170     -9.02225  220979.00000
     3.99170     -8.99389  221079.00000
     3.99170     -8.96862  221180.00000
     3.99170     -8.94807  221279.00000
    -3.99414      9.69379  222694.00000
    -3.99414     10.25485  222796.00000
    -3.99414     10.28643  222895.00000
    -3.99414     10.20608  222995.00000
    -3.99414     10.14563  223096.00000
    -3.99414     10.09875  223195.00000
    -3.99414     10.06023  223295.00000
    -3.99414     10.02824  223396.00000
    -3.99414      9.97502  223495.00000
    -3.99414      9.95298  223595.00000
    -0.00488      0.55836  224496.00000
    -0.00488     -0.22100  224597.00000
    -0.00488     -0.41216  224697.00000
    -0.00488     -0.38080  224798.00000
    -0.00488     -0.30353  224897.00000
    -0.00488     -0.27933  224997.00000
    -0.00488     -0.25953  225098.00000
    -0.00488     -0.24269  225197.00000
    -0.00488     -0.22884  225297.00000
    -0.00488     -0.21730  225398.00000
     3.49365     -6.78173  226009.00000
     3.49365     -7.81032  226109.00000
     3.49365     -8.08225  226210.00000
     3.49365     -8.02009  226309.00000
     3.49365     -7.97589  226409.00000
     3.49365     -7.94020  226510.00000
     3.49365     -7.91203  226609.00000
     3.49365     -7.88734  226709.00000
     3.49365     -7.86616  226810.00000
     3.49365     -7.84584  226909.00000
    -3.49365      7.78670  228281.00000
    -3.49365      8.78521  228383.00000
    -3.49365      9.04191  228482.00000
    -3.49365      8.92580  228582.00000
    -3.49365      8.87690  228683.00000
    -3.49365      8.83865  228782.00000
    -3.49365      8.80804  228882.00000
    -3.49365      8.78051  228983.00000
    -3.49365      8.75785  229082.00000
    -3.49365      8.73629  229182.00000
    -0.00488      0.98015  230059.00000
    -0.00488     -0.03025  230159.00000
    -0.00488     -0.35446  230260.00000
    -0.00488     -0.31131  230359.00000
    -0.00488     -0.27976  230459.00000
    -0.00488     -0.25453  230560.00000
    -0.00488     -0.23616  230659.00000
    -0.00488     -0.21998  230759.00000
    -0.00488     -0.20687  230860.00000
    -0.00488     -0.18475  230959.00000
     2.99316     -5.67724  231534.00000
     2.99316     -6.69607  231636.00000
     2.99316     -6.98148  231735.00000
     2.99316     -6.89403  231836.00000
     2.99316     -6.85462  231935.00000
     2.99316     -6.82212  232035.00000
     2.99316     -6.79719  232136.00000
     2.99316     -6.77617  232235.00000
     2.99316     -6.75653  232335.00000
     2.99316     -6.73881  232436.00000
    -2.99316      6.32890  233729.00000
    -2.99316      7.45417  233829.00000
    -2.99316      7.78394  233930.00000
    -2.99316      7.68734  234029.00000
    -2.99316      7.64425  234129.00000
    -2.99316      7.60826  234230.00000
    -2.99316      7.57763  234329.00000
    -2.99316      7.55280  234429.00000
    -2.99316      7.53186  234530.00000
    -2.99316      7.51320  234629.00000
    -0.00488      0.56914  235462.00000
    -0.00488     -0.17032  235563.00000
    -0.00488     -0.32509  235663.00000
    -0.00488     -0.29024  235764.00000
    -0.00488     -0.25439  235863.00000
    -0.00488     -0.20974  235963.00000
    -0.00488     -0.19445  236064.00000
    -0.00488     -0.17969  236163.00000
    -0.00488     -0.16835  236263.00000
    -0.00488     -0.15889  236364.00000
     2.49268     -4.35022  236895.00000
     2.49268     -5.47989  236997.00000
     2.49268     -5.83147  237096.00000
     2.49268     -5.76393  237196.00000
     2.49268     -5.72759  237297.00000
     2.49268     -5.69966  237396.00000
     2.49268     -5.67597  237496.00000
     2.49268     -5.65654  237597.00000
     2.49268     -5.63931  237696.00000
     2.49268     -5.62531  237796.00000
    -2.49512      4.95165  239005.00000
    -2.49512      6.15084  239106.00000
    -2.49512      6.53230  239206.00000
    -2.49512      6.45476  239307.00000
    -2.49512      6.41608  239406.00000
    -2.49512      6.38476  239506.00000
    -2.49512      6.35932  239607.00000
    -2.49512      6.33784  239706.00000
    -2.49512      6.31820  239806.00000
    -2.49512      6.30177  239907.00000
    -0.00488      1.71713  240702.00000
    -0.00488     -0.21314  240804.00000
    -0.00488     -0.26912  240903.00000
    -0.00488     -0.22984  241003.00000
    -0.00488     -0.20152  241104.00000
    -0.00488     -0.18156  241203.00000
    -0.00488     -0.16413  241303.00000
    -0.00488     -0.15095  241404.00000
    -0.00488     -0.13136  241503.00000
    -0.00488     -0.12402  241603.00000
     1.99463     -2.79316  242106.00000
     1.99463     -4.63066  242207.00000
     1.99463     -4.67437  242306.00000
     1.99463     -4.62594  242406.00000
     1.99463     -4.59165  242507.00000
     1.99463     -4.56723  242606.00000
     1.99463     -4.54708  242706.00000
     1.99463     -4.52892  242807.00000
     1.99463     -4.50077  242906.00000
     1.99463     -4.49032  243006.00000
    -1.99463      4.38865  244153.00000
    -1.99463      5.16321  244254.00000
    -1.99463      5.30002  244354.00000
    -1.99463      5.24836  244454.00000
    -1.99463      5.20700  244555.00000
    -1.99463      5.17737  244654.00000
    -1.99463      5.13333  244754.00000
    -1.99463      5.11620  244855.00000
    -1.99463      5.10086  244954.00000
    -1.99463      5.08735  245054.00000
    -0.00488      0.60054  245814.00000
    -0.00488     -0.09173  245915.00000
    -0.00488     -0.21465  246015.00000
    -0.00488     -0.18588  246115.00000
    -0.00488     -0.15770  246216.00000
    -0.00488     -0.13842  246315.00000
    -0.00488     -0.12372  246415.00000
    -0.00488     -0.10159  246516.00000
    -0.00488     -0.09387  246615.00000
    -0.00488     -0.08695  246715.00000
     1.49414     -2.10162  247175.00000
     1.49414     -3.16195  247275.00000
     1.49414     -3.50723  247376.00000
     1.49414     -3.46519  247475.00000
     1.49414     -3.44053  247575.00000
     1.49414     -3.41986  247676.00000
     1.49414     -3.40365  247775.00000
     1.49414     -3.38920  247875.00000
     1.49414     -3.37788  247976.00000
     1.49414     -3.36710  248075.00000
    -1.49414      2.14419  249137.00000
    -1.49414      4.01390  249237.00000
    -1.49414      4.06941  249338.00000
    -1.49414      4.02316  249437.00000
    -1.49414      3.99231  249537.00000
    -1.49414      3.96919  249638.00000
    -1.49414      3.95055  249737.00000
    -1.49414      3.93369  249837.00000
    -1.49414      3.90729  249938.00000
    -1.49414      3.89622  250037.00000
    -0.00488      1.03662  250748.00000
    -0.00488      0.08324  250849.00000
    -0.00488     -0.14366  250950.00000
    -0.00488     -0.12845  251049.00000
    -0.00488     -0.10305  251149.00000
    -0.00488     -0.08579  251250.00000
    -0.00488     -0.06123  251349.00000
    -0.00488     -0.05178  251449.00000
    -0.00488     -0.04564  251550.00000
    -0.00488     -0.04062  251649.00000
     0.99121     -1.48932  252053.00000
     0.99121     -2.21789  252154.00000
     0.99121     -2.36086  252253.00000
     0.99121     -2.33014  252353.00000
     0.99121     -2.30499  252454.00000
     0.99121     -2.28738  252553.00000
     0.99121     -2.27306  252653.00000
     0.99121     -2.25215  252754.00000
     0.99121     -2.24424  252853.00000
     0.99121     -2.23632  252953.00000
    -0.99121      1.88938  253905.00000
    -0.99121      2.68201  254005.00000
    -0.99121      2.85515  254105.00000
    -0.99121      2.82176  254206.00000
    -0.99121      2.79316  254305.00000
    -0.99121      2.77200  254406.00000
    -0.99121      2.74445  254505.00000
    -0.99121      2.73415  254605.00000
    -0.99121      2.72448  254706.00000
    -0.99121      2.71586  254805.00000
    -0.00488      0.82263  255467.00000
    -0.00488      0.06931  255569.00000
    -0.00488     -0.06218  255668.00000
    -0.00488     -0.04232  255768.00000
    -0.00488     -0.02317  255869.00000
    -0.00488     -0.01217  255968.00000
    -0.00488     -0.00334  256069.00000
    -0.00488      0.00458  256168.00000
    -0.00488      0.01522  256268.00000
    -0.00488      0.02057  256369.00000
     0.49316     -0.46255  256705.00000
     0.49316     -1.05005  256806.00000
     0.49316     -1.20047  256905.00000
     0.49316     -1.18102  257005.00000
     0.49316     -1.16395  257106.00000
     0.49316     -1.15268  257205.00000
     0.49316     -1.14363  257305.00000
     0.49316     -1.12874  257406.00000
     0.49316     -1.12288  257505.00000
     0.49316     -1.11861  257606.00000
    -0.49072      0.58338  258410.00000
    -0.49072      1.23934  258512.00000
    -0.49072      1.59130  258611.00000
    -0.49072      1.59851  258711.00000
    -0.49072      1.56123  258812.00000
    -0.49072      1.55050  258911.00000
    -0.49072      1.54302  259011.00000
    -0.49072      1.53524  259112.00000
    -0.49072      1.52954  259211.00000
    -0.49072      1.52451  259312.00000
    -0.00488      1.25604  259912.00000
    -0.00488      0.53883  260013.00000
    -0.00488      0.10788  260113.00000
    -0.00488      0.08141  260214.00000
    -0.00488      0.08911  260313.00000
    -0.00488      0.09489  260413.00000
    -0.00488      0.10062  260514.00000
    -0.00488      0.10434  260613.00000
    -0.00488      0.10702  260713.00000
    -0.00488      0.10972  260814.00000