# Acquired on 01/02/2024 10:33:27 
# SPIDER: Tracking_HM077x145x38AA-1
# STATIC MEASUREMENT

# pos [mm]		 force [N]		 time [ms]
0.25000			-0.05458			230.00000
0.25000			-0.41529			331.00000
0.25000			-0.90899			432.00000
0.25000			-0.89859			531.00000
0.25000			-0.89512			631.00000
0.25000			-0.89172			731.00000
0.25000			-0.88936			831.00000
0.25000			-0.88811			931.00000
0.25000			-0.88599			1032.00000
0.25000			-0.88434			1131.00000
-0.25000			-0.05588			1912.00000
-0.25000			0.83563			2013.00000
-0.25000			0.95791			2113.00000
-0.25000			0.94816			2213.00000
-0.25000			0.94280			2314.00000
-0.25000			0.94004			2413.00000
-0.25000			0.93737			2513.00000
-0.25000			0.93577			2614.00000
-0.25000			0.93433			2713.00000
-0.25000			0.93099			2813.00000
0.00244			0.87479			3390.00000
0.00244			0.55691			3491.00000
0.00244			0.16304			3591.00000
0.00244			0.06074			3691.00000
0.00244			0.06411			3791.00000
0.00244			0.06710			3892.00000
0.00244			0.06682			3991.00000
0.00244			0.06763			4091.00000
0.00244			0.06821			4192.00000
0.00244			0.06911			4291.00000
0.50000			-0.75220			4683.00000
0.50000			-1.58374			4784.00000
0.50000			-1.88682			4883.00000
0.50000			-1.90323			4983.00000
0.50000			-1.89202			5084.00000
0.50000			-1.88152			5183.00000
0.50000			-1.87790			5282.00000
0.50000			-1.87448			5384.00000
0.50000			-1.87169			5483.00000
0.50000			-1.86905			5583.00000
-0.50000			1.09261			6505.00000
-0.50000			1.78254			6606.00000
-0.50000			1.96761			6706.00000
-0.50000			1.96504			6806.00000
-0.50000			1.95655			6906.00000
-0.50000			1.95140			7007.00000
-0.50000			1.94642			7106.00000
-0.50000			1.93805			7206.00000
-0.50000			1.93576			7307.00000
-0.50000			1.93317			7406.00000
0.00244			1.50085			8050.00000
0.00244			0.64893			8151.00000
0.00244			0.14449			8250.00000
0.00244			0.05571			8350.00000
0.00244			0.05855			8451.00000
0.00244			0.06069			8550.00000
0.00244			0.06248			8650.00000
0.00244			0.06356			8751.00000
0.00244			0.06534			8850.00000
0.00244			0.06703			8950.00000
0.75000			-2.10942			9398.00000
0.75000			-2.74978			9498.00000
0.75000			-2.87887			9599.00000
0.75000			-2.85686			9698.00000
0.75000			-2.84519			9798.00000
0.75000			-2.83798			9899.00000
0.75000			-2.83157			9998.00000
0.75000			-2.82689			10098.00000
0.75000			-2.81946			10199.00000
0.75000			-2.81606			10298.00000
-0.75000			1.05606			11324.00000
-0.75000			2.83205			11424.00000
-0.75000			2.95939			11525.00000
-0.75000			2.94521			11624.00000
-0.75000			2.93468			11724.00000
-0.75000			2.92626			11825.00000
-0.75000			2.92033			11924.00000
-0.75000			2.91495			12024.00000
-0.75000			2.90718			12125.00000
-0.75000			2.90288			12224.00000
0.00244			1.01901			12923.00000
0.00244			0.26122			13024.00000
0.00244			0.05164			13123.00000
0.00244			0.04109			13223.00000
0.00244			0.04772			13324.00000
0.00244			0.05212			13423.00000
0.00244			0.05491			13524.00000
0.00244			0.05808			13623.00000
0.00244			0.06192			13723.00000
0.00244			0.06275			13824.00000
1.00000			-3.18645			14318.00000
1.00000			-3.75204			14420.00000
1.00000			-3.86060			14519.00000
1.00000			-3.84527			14619.00000
1.00000			-3.83220			14720.00000
1.00000			-3.82315			14819.00000
1.00000			-3.81586			14919.00000
1.00000			-3.80427			15020.00000
1.00000			-3.79975			15119.00000
1.00000			-3.79547			15219.00000
-1.00000			3.18859			16343.00000
-1.00000			3.80350			16443.00000
-1.00000			3.93862			16543.00000
-1.00000			3.92681			16644.00000
-1.00000			3.91389			16743.00000
-1.00000			3.90383			16843.00000
-1.00000			3.89685			16944.00000
-1.00000			3.88400			17043.00000
-1.00000			3.87865			17143.00000
-1.00000			3.87317			17244.00000
0.00244			1.71297			17990.00000
0.00244			0.57513			18092.00000
0.00244			0.02321			18191.00000
0.00244			0.02947			18291.00000
0.00244			0.03732			18392.00000
0.00244			0.04194			18491.00000
0.00244			0.04501			18591.00000
0.00244			0.04835			18692.00000
0.00244			0.05129			18791.00000
0.00244			0.05546			18891.00000
1.25000			-4.08543			19424.00000
1.25000			-4.70938			19524.00000
1.25000			-4.83835			19625.00000
1.25000			-4.81186			19724.00000
1.25000			-4.79562			19824.00000
1.25000			-4.78464			19925.00000
1.25000			-4.77551			20024.00000
1.25000			-4.76244			20124.00000
1.25000			-4.75654			20225.00000
1.25000			-4.75108			20324.00000
-1.25000			4.18990			21532.00000
-1.25000			4.79165			21634.00000
-1.25000			4.92560			21733.00000
-1.25000			4.90697			21833.00000
-1.25000			4.89048			21934.00000
-1.25000			4.88056			22033.00000
-1.25000			4.87226			22133.00000
-1.25000			4.85522			22234.00000
-1.25000			4.84899			22333.00000
-1.25000			4.84366			22433.00000
0.00244			1.01195			23224.00000
0.00244			0.25644			23325.00000
0.00244			0.02837			23426.00000
0.00244			0.01097			23525.00000
0.00244			0.02093			23625.00000
0.00244			0.03088			23726.00000
0.00244			0.03510			23825.00000
0.00244			0.03907			23925.00000
0.00244			0.04141			24026.00000
0.00244			0.04478			24125.00000
1.50000			-3.88437			24688.00000
1.50000			-5.73273			24790.00000
1.50000			-5.84435			24889.00000
1.50000			-5.82301			24989.00000
1.50000			-5.80642			25090.00000
1.50000			-5.79258			25189.00000
1.50000			-5.78235			25289.00000
1.50000			-5.77478			25390.00000
1.50000			-5.75925			25489.00000
1.50000			-5.75324			25589.00000
-1.50000			4.46480			26858.00000
-1.50000			5.47812			26958.00000
-1.50000			5.85906			27060.00000
-1.50000			5.87809			27159.00000
-1.50000			5.86344			27259.00000
-1.50000			5.85059			27360.00000
-1.50000			5.84091			27459.00000
-1.50000			5.83214			27559.00000
-1.50000			5.82279			27659.00000
-1.50000			5.81608			27759.00000
0.00244			0.94605			28580.00000
0.00244			0.22045			28681.00000
0.00244			0.00806			28780.00000
0.00244			-0.00378			28880.00000
0.00244			0.00758			28981.00000
0.00244			0.01618			29080.00000
0.00244			0.02545			29180.00000
0.00244			0.02922			29280.00000
0.00244			0.03417			29380.00000
0.00244			0.03754			29481.00000
1.75000			-5.86630			30073.00000
1.75000			-6.63618			30174.00000
1.75000			-6.84282			30273.00000
1.75000			-6.82097			30373.00000
1.75000			-6.79642			30474.00000
1.75000			-6.78116			30573.00000
1.75000			-6.75882			30673.00000
1.75000			-6.75047			30774.00000
1.75000			-6.74205			30873.00000
1.75000			-6.73388			30973.00000
-1.75000			5.47309			32304.00000
-1.75000			6.47145			32405.00000
-1.75000			6.84715			32505.00000
-1.75000			6.84777			32606.00000
-1.75000			6.83023			32705.00000
-1.75000			6.81676			32805.00000
-1.75000			6.80572			32906.00000
-1.75000			6.79564			33005.00000
-1.75000			6.78622			33105.00000
-1.75000			6.77893			33206.00000
0.00244			1.30098			34062.00000
0.00244			0.37875			34162.00000
0.00244			0.03123			34264.00000
0.00244			-0.00818			34363.00000
0.00244			0.00170			34463.00000
0.00244			0.00846			34564.00000
0.00244			0.01406			34663.00000
0.00244			0.01914			34763.00000
0.00244			0.02281			34864.00000
0.00244			0.02616			34963.00000
2.00000			-7.18307			35599.00000
2.00000			-7.76178			35700.00000
2.00000			-7.88270			35801.00000
2.00000			-7.85724			35900.00000
2.00000			-7.83495			36000.00000
2.00000			-7.81956			36101.00000
2.00000			-7.80750			36200.00000
2.00000			-7.78588			36300.00000
2.00000			-7.77721			36401.00000
2.00000			-7.76879			36500.00000
-2.00000			6.94037			37903.00000
-2.00000			7.67012			38003.00000
-2.00000			7.87959			38105.00000
-2.00000			7.87082			38204.00000
-2.00000			7.84561			38304.00000
-2.00000			7.81658			38405.00000
-2.00000			7.80333			38504.00000
-2.00000			7.79242			38604.00000
-2.00000			7.78363			38705.00000
-2.00000			7.77440			38804.00000
0.00244			1.29995			39692.00000
0.00244			0.37008			39793.00000
0.00244			0.01603			39894.00000
0.00244			-0.02004			39993.00000
0.00244			-0.00941			40093.00000
0.00244			-0.00197			40194.00000
0.00244			0.00474			40293.00000
0.00244			0.01082			40393.00000
0.00244			0.01547			40494.00000
0.00244			0.01919			40593.00000
2.25000			-7.82866			41248.00000
2.25000			-8.66124			41349.00000
2.25000			-8.90985			41448.00000
2.25000			-8.89316			41548.00000
2.25000			-8.86279			41649.00000
2.25000			-8.82919			41748.00000
2.25000			-8.81649			41848.00000
2.25000			-8.80405			41949.00000
2.25000			-8.79410			42048.00000
2.25000			-8.78538			42148.00000
-2.25000			8.15314			43595.00000
-2.25000			8.75281			43696.00000
-2.25000			8.88228			43795.00000
-2.25000			8.85407			43895.00000
-2.25000			8.82884			43996.00000
-2.25000			8.81097			44095.00000
-2.25000			8.79599			44195.00000
-2.25000			8.77027			44296.00000
-2.25000			8.75997			44395.00000
-2.25000			8.75150			44495.00000
0.00244			1.34011			45408.00000
0.00244			0.38445			45509.00000
0.00244			-0.04822			45610.00000
0.00244			-0.03477			45709.00000
0.00244			-0.02235			45809.00000
0.00244			-0.01341			45910.00000
0.00244			-0.00660			46009.00000
0.00244			-0.00124			46109.00000
0.00244			0.00366			46210.00000
0.00244			0.00911			46309.00000
2.50000			-8.43364			47000.00000
2.50000			-9.50680			47100.00000
2.50000			-9.97708			47201.00000
2.50000			-9.94242			47300.00000
2.50000			-9.91939			47401.00000
2.50000			-9.90172			47500.00000
2.50000			-9.88664			47600.00000
2.50000			-9.87337			47701.00000
2.50000			-9.86176			47800.00000
2.50000			-9.84243			47900.00000
-2.50000			8.99785			49420.00000
-2.50000			9.69708			49521.00000
-2.50000			9.89185			49622.00000
-2.50000			9.87863			49721.00000
-2.50000			9.85075			49821.00000
-2.50000			9.81431			49922.00000
-2.50000			9.79938			50021.00000
-2.50000			9.78676			50121.00000
-2.50000			9.77548			50222.00000
-2.50000			9.76406			50321.00000
0.00244			0.82746			51258.00000
0.00244			0.15052			51358.00000
0.00244			-0.05249			51459.00000
0.00244			-0.05860			51558.00000
0.00244			-0.04329			51658.00000
0.00244			-0.03140			51759.00000
0.00244			-0.01507			51858.00000
0.00244			-0.00969			51958.00000
0.00244			-0.00559			52059.00000
0.00244			0.00094			52158.00000
2.75000			-9.75815			52868.00000
2.75000			-10.69903			52968.00000
2.75000			-11.02403			53068.00000
2.75000			-10.98756			53169.00000
2.75000			-10.96436			53268.00000
2.75000			-10.94432			53368.00000
2.75000			-10.92776			53469.00000
2.75000			-10.91474			53568.00000
2.75000			-10.90207			53668.00000
2.75000			-10.89003			53769.00000
-2.75000			9.77359			55324.00000
-2.75000			10.62564			55426.00000
-2.75000			10.91266			55525.00000
-2.75000			10.91286			55625.00000
-2.75000			10.85455			55726.00000
-2.75000			10.83499			55825.00000
-2.75000			10.81891			55925.00000
-2.75000			10.80400			56026.00000
-2.75000			10.79199			56125.00000
-2.75000			10.78128			56225.00000
0.00244			1.31505			57198.00000
0.00244			-0.00453			57300.00000
0.00244			-0.07773			57398.00000
0.00244			-0.06420			57499.00000
0.00244			-0.05008			57600.00000
0.00244			-0.04035			57699.00000
0.00244			-0.03158			57799.00000
0.00244			-0.02452			57900.00000
0.00244			-0.01783			57999.00000
0.00244			-0.00991			58099.00000
3.00000			-11.01920			58826.00000
3.00000			-11.87082			58928.00000
3.00000			-12.12796			59027.00000
3.00000			-12.11476			59127.00000
3.00000			-12.08093			59228.00000
3.00000			-12.03725			59327.00000
3.00000			-12.01957			59427.00000
3.00000			-12.00467			59528.00000
3.00000			-11.99087			59627.00000
3.00000			-11.97903			59727.00000
-3.00000			10.33681			61326.00000
-3.00000			11.45480			61427.00000
-3.00000			11.96441			61528.00000
-3.00000			11.92728			61627.00000
-3.00000			11.90127			61727.00000
-3.00000			11.87953			61828.00000
-3.00000			11.86110			61927.00000
-3.00000			11.84534			62027.00000
-3.00000			11.83059			62128.00000
-3.00000			11.80598			62227.00000
0.00244			0.77870			63218.00000
0.00244			0.12308			63320.00000
0.00244			-0.08258			63418.00000
0.00244			-0.09153			63519.00000
0.00244			-0.07368			63620.00000
0.00244			-0.05008			63719.00000
0.00244			-0.04226			63819.00000
0.00244			-0.03462			63920.00000
0.00244			-0.02801			64019.00000
0.00244			-0.02422			64119.00000
3.25000			-12.39341			64877.00000
3.25000			-13.07532			64978.00000
3.25000			-13.23249			65079.00000
3.25000			-13.18873			65178.00000
3.25000			-13.15455			65279.00000
3.25000			-13.12959			65378.00000
3.25000			-13.09063			65478.00000
3.25000			-13.07437			65579.00000
3.25000			-13.06009			65678.00000
3.25000			-13.04722			65778.00000
-3.25000			12.02418			67443.00000
-3.25000			12.80434			67545.00000
-3.25000			13.04152			67644.00000
-3.25000			13.02458			67744.00000
-3.25000			12.98695			67845.00000
-3.25000			12.94013			67944.00000
-3.25000			12.92205			68044.00000
-3.25000			12.90476			68145.00000
-3.25000			12.89003			68244.00000
-3.25000			12.87668			68344.00000
0.00244			0.63515			69366.00000
0.00244			0.06682			69467.00000
0.00244			-0.10394			69567.00000
0.00244			-0.10548			69667.00000
0.00244			-0.08808			69768.00000
0.00244			-0.07464			69867.00000
0.00244			-0.05282			69967.00000
0.00244			-0.04653			70068.00000
0.00244			-0.04083			70167.00000
0.00244			-0.03487			70267.00000
3.50000			-13.30666			71050.00000
3.50000			-14.10385			71151.00000
3.50000			-14.34858			71252.00000
3.50000			-14.33745			71351.00000
3.50000			-14.27386			71451.00000
3.50000			-14.25010			71552.00000
3.50000			-14.22876			71651.00000
3.50000			-14.21135			71751.00000
3.50000			-14.19687			71852.00000
3.50000			-14.18177			71951.00000
-3.50000			13.37406			73665.00000
-3.50000			13.98340			73766.00000
-3.50000			14.13024			73867.00000
-3.50000			14.09867			73966.00000
-3.50000			14.06291			74066.00000
-3.50000			14.03764			74167.00000
-3.50000			13.99615			74266.00000
-3.50000			13.97913			74367.00000
-3.50000			13.96455			74466.00000
-3.50000			13.94985			74566.00000
0.00244			0.59270			75600.00000
0.00244			0.03241			75701.00000
0.00244			-0.12335			75800.00000
0.00244			-0.11935			75900.00000
0.00244			-0.10095			76001.00000
0.00244			-0.08766			76100.00000
0.00244			-0.06546			76201.00000
0.00244			-0.05762			76300.00000
0.00244			-0.04990			76400.00000
0.00244			-0.04485			76501.00000
3.75000			-14.23286			77313.00000
3.75000			-15.15087			77413.00000
3.75000			-15.47137			77514.00000
3.75000			-15.42743			77615.00000
3.75000			-15.39687			77714.00000
3.75000			-15.37118			77814.00000
3.75000			-15.34903			77915.00000
3.75000			-15.33048			78014.00000
3.75000			-15.31452			78114.00000
3.75000			-15.29969			78215.00000
-3.75000			13.79997			79965.00000
-3.75000			15.19031			80066.00000
-3.75000			15.22457			80166.00000
-3.75000			15.17091			80267.00000
-3.75000			15.13841			80366.00000
-3.75000			15.11192			80466.00000
-3.75000			15.08965			80567.00000
-3.75000			15.06941			80666.00000
-3.75000			15.03782			80767.00000
-3.75000			15.02321			80866.00000
0.00244			0.52740			81925.00000
0.00244			0.00064			82025.00000
0.00244			-0.13906			82125.00000
0.00244			-0.13076			82226.00000
0.00244			-0.11121			82325.00000
0.00244			-0.09665			82425.00000
0.00244			-0.07411			82525.00000
0.00244			-0.06561			82625.00000
0.00244			-0.05727			82725.00000
0.00244			-0.05212			82826.00000
4.00000			-15.09723			83644.00000
4.00000			-16.19666			83745.00000
4.00000			-16.67669			83846.00000
4.00000			-16.63230			83945.00000
4.00000			-16.59940			84045.00000
4.00000			-16.57205			84146.00000
4.00000			-16.54848			84245.00000
4.00000			-16.52719			84345.00000
4.00000			-16.50733			84446.00000
4.00000			-16.49155			84545.00000
-4.00000			15.39743			86333.00000
-4.00000			16.15585			86433.00000
-4.00000			16.37178			86534.00000
-4.00000			16.34368			86633.00000
-4.00000			16.30186			86733.00000
-4.00000			16.24447			86834.00000
-4.00000			16.22276			86933.00000
-4.00000			16.20381			87033.00000
-4.00000			16.18611			87134.00000
-4.00000			16.16867			87233.00000
0.00244			1.17520			88323.00000
0.00244			-0.08288			88424.00000
0.00244			-0.16012			88524.00000
0.00244			-0.14323			88625.00000
0.00244			-0.12568			88724.00000
0.00244			-0.11307			88824.00000
0.00244			-0.09927			88925.00000
0.00244			-0.08836			89024.00000
0.00244			-0.07290			89124.00000
0.00244			-0.06632			89225.00000
4.25000			-16.21571			90074.00000
4.25000			-17.80251			90175.00000
4.25000			-17.85039			90275.00000
4.25000			-17.79610			90376.00000
4.25000			-17.76003			90475.00000
4.25000			-17.73146			90575.00000
4.25000			-17.70504			90676.00000
4.25000			-17.68290			90775.00000
4.25000			-17.64597			90875.00000
4.25000			-17.62931			90976.00000
-4.25000			16.79986			92823.00000
-4.25000			17.38910			92924.00000
-4.25000			17.51055			93025.00000
-4.25000			17.44661			93124.00000
-4.25000			17.40365			93225.00000
-4.25000			17.37341			93324.00000
-4.25000			17.32530			93424.00000
-4.25000			17.30542			93525.00000
-4.25000			17.28682			93624.00000
-4.25000			17.26928			93724.00000
0.00244			0.30367			94831.00000
0.00244			-0.08828			94933.00000
0.00244			-0.17508			95032.00000
0.00244			-0.15894			95132.00000
0.00244			-0.13843			95233.00000
0.00244			-0.12189			95332.00000
0.00244			-0.10862			95432.00000
0.00244			-0.09736			95533.00000
0.00244			-0.08074			95631.00000
0.00244			-0.07421			95732.00000
4.50000			-18.41422			96588.00000
4.50000			-19.01729			96689.00000
4.50000			-19.11685			96788.00000
4.50000			-19.06336			96888.00000
4.50000			-19.02232			96989.00000
4.50000			-18.99125			97088.00000
4.50000			-18.96325			97188.00000
4.50000			-18.93796			97289.00000
4.50000			-18.89790			97388.00000
4.50000			-18.88075			97488.00000
-4.50000			17.50308			99356.00000
-4.50000			18.42162			99457.00000
-4.50000			18.70720			99556.00000
-4.50000			18.68878			99656.00000
-4.50000			18.60541			99757.00000
-4.50000			18.57555			99856.00000
-4.50000			18.55147			99956.00000
-4.50000			18.52988			100057.00000
-4.50000			18.50929			100156.00000
-4.50000			18.49051			100256.00000
0.00244			0.69651			101383.00000
0.00244			0.04775			101483.00000
0.00244			-0.17186			101583.00000
0.00244			-0.18782			101684.00000
0.00244			-0.14408			101783.00000
0.00244			-0.12863			101883.00000
0.00244			-0.11754			101984.00000
0.00244			-0.10719			102083.00000
0.00244			-0.09801			102183.00000
0.00244			-0.08949			102284.00000
4.75000			-18.66195			103170.00000
4.75000			-20.29296			103270.00000
4.75000			-20.33273			103370.00000
4.75000			-20.26738			103471.00000
4.75000			-20.22646			103570.00000
4.75000			-20.19572			103670.00000
4.75000			-20.16737			103771.00000
4.75000			-20.14233			103870.00000
4.75000			-20.11968			103970.00000
4.75000			-20.08090			104071.00000
-4.75000			18.13427			105992.00000
-4.75000			19.83458			106093.00000
-4.75000			19.90024			106193.00000
-4.75000			19.83013			106294.00000
-4.75000			19.78630			106393.00000
-4.75000			19.75264			106493.00000
-4.75000			19.72512			106594.00000
-4.75000			19.70044			106693.00000
-4.75000			19.65924			106794.00000
-4.75000			19.63991			106893.00000
0.00244			0.41354			108043.00000
0.00244			-0.06908			108144.00000
0.00244			-0.20649			108245.00000
0.00244			-0.20051			108344.00000
0.00244			-0.17751			108444.00000
0.00244			-0.14532			108545.00000
0.00244			-0.13388			108644.00000
0.00244			-0.12325			108744.00000
0.00244			-0.11322			108845.00000
0.00244			-0.10467			108943.00000
5.00000			-20.00359			109842.00000
5.00000			-21.16623			109943.00000
5.00000			-21.64038			110044.00000
5.00000			-21.58086			110143.00000
5.00000			-21.53871			110243.00000
5.00000			-21.50370			110344.00000
5.00000			-21.47393			110443.00000
5.00000			-21.44840			110543.00000
5.00000			-21.42578			110644.00000
5.00000			-21.38526			110743.00000
-5.00000			20.30436			112695.00000
-5.00000			21.00386			112796.00000
-5.00000			21.17114			112897.00000
-5.00000			21.12542			112996.00000
-5.00000			21.07758			113096.00000
-5.00000			21.04126			113197.00000
-5.00000			20.98283			113296.00000
-5.00000			20.95963			113396.00000
-5.00000			20.93756			113497.00000
-5.00000			20.91707			113596.00000
0.00244			0.74766			114746.00000
0.00244			0.03975			114846.00000
0.00244			-0.20795			114948.00000
0.00244			-0.22160			115047.00000
0.00244			-0.17445			115147.00000
0.00244			-0.15673			115248.00000
0.00244			-0.14303			115347.00000
0.00244			-0.13204			115447.00000
0.00244			-0.12262			115548.00000
0.00244			-0.11427			115647.00000
5.25000			-22.00602			116570.00000
5.25000			-22.76027			116671.00000
5.25000			-22.95205			116771.00000
5.25000			-22.89331			116872.00000
5.25000			-22.83841			116971.00000
5.25000			-22.76552			117071.00000
5.25000			-22.73793			117172.00000
5.25000			-22.71259			117271.00000
5.25000			-22.68881			117371.00000
5.25000			-22.66802			117472.00000
-5.25000			21.59300			119466.00000
-5.25000			22.27803			119567.00000
-5.25000			22.43764			119667.00000
-5.25000			22.36472			119768.00000
-5.25000			22.30729			119867.00000
-5.25000			22.26924			119967.00000
-5.25000			22.21020			120068.00000
-5.25000			22.18529			120167.00000
-5.25000			22.16168			120267.00000
-5.25000			22.14047			120368.00000
0.00244			0.98526			121547.00000
0.00244			-0.17472			121648.00000
0.00244			-0.24103			121747.00000
0.00244			-0.21941			121847.00000
0.00244			-0.19647			121948.00000
0.00244			-0.17721			122047.00000
0.00244			-0.16279			122147.00000
0.00244			-0.15243			122248.00000
0.00244			-0.13096			122347.00000
0.00244			-0.12194			122447.00000
5.50000			-22.52983			123395.00000
5.50000			-24.22408			123496.00000
5.50000			-24.28420			123596.00000
5.50000			-24.21895			123697.00000
5.50000			-24.17233			123796.00000
5.50000			-24.13475			123896.00000
5.50000			-24.10172			123997.00000
5.50000			-24.07259			124096.00000
5.50000			-24.02368			124196.00000
5.50000			-24.00093			124297.00000
-5.50000			22.89447			126321.00000
-5.50000			23.58614			126423.00000
-5.50000			23.76020			126522.00000
-5.50000			23.71267			126622.00000
-5.50000			23.65951			126723.00000
-5.50000			23.61929			126822.00000
-5.50000			23.55675			126922.00000
-5.50000			23.52996			127023.00000
-5.50000			23.50560			127122.00000
-5.50000			23.48316			127222.00000
0.00244			0.27250			128421.00000
0.00244			-0.14853			128522.00000
0.00244			-0.25518			128621.00000
0.00244			-0.23801			128721.00000
0.00244			-0.21270			128822.00000
0.00244			-0.19272			128921.00000
0.00244			-0.17611			129021.00000
0.00244			-0.15130			129122.00000
0.00244			-0.14132			129221.00000
0.00244			-0.13114			129322.00000
5.75000			-24.69293			130292.00000
5.75000			-25.44816			130394.00000
5.75000			-25.65884			130493.00000
5.75000			-25.59460			130593.00000
5.75000			-25.52809			130694.00000
5.75000			-25.44977			130793.00000
5.75000			-25.41697			130893.00000
5.75000			-25.38952			130994.00000
5.75000			-25.36446			131093.00000
5.75000			-25.34058			131193.00000
-5.75000			24.38400			133262.00000
-5.75000			24.98621			133362.00000
-5.75000			25.11550			133463.00000
-5.75000			25.03587			133562.00000
-5.75000			24.97781			133662.00000
-5.75000			24.93659			133763.00000
-5.75000			24.87051			133862.00000
-5.75000			24.84352			133962.00000
-5.75000			24.81838			134063.00000
-5.75000			24.79543			134162.00000
0.00244			0.33893			135373.00000
0.00244			-0.14235			135475.00000
0.00244			-0.27381			135574.00000
0.00244			-0.25890			135674.00000
0.00244			-0.23208			135775.00000
0.00244			-0.21077			135874.00000
0.00244			-0.17897			135974.00000
0.00244			-0.16573			136075.00000
0.00244			-0.15374			136174.00000
0.00244			-0.14474			136274.00000
6.00000			-25.75835			137246.00000
6.00000			-26.74105			137347.00000
6.00000			-27.06208			137446.00000
6.00000			-27.03292			137546.00000
6.00000			-26.91846			137647.00000
6.00000			-26.87877			137746.00000
6.00000			-26.84433			137846.00000
6.00000			-26.81349			137947.00000
6.00000			-26.78506			138046.00000
6.00000			-26.76005			138146.00000
-6.00000			24.94199			140251.00000
-6.00000			26.06583			140352.00000
-6.00000			26.49227			140452.00000
-6.00000			26.42539			140553.00000
-6.00000			26.37647			140652.00000
-6.00000			26.33591			140752.00000
-6.00000			26.30139			140853.00000
-6.00000			26.27060			140952.00000
-6.00000			26.24273			141052.00000
-6.00000			26.21704			141153.00000
0.00244			0.14954			142399.00000
0.00244			-0.20340			142499.00000
0.00244			-0.28838			142601.00000
0.00244			-0.26928			142700.00000
0.00244			-0.24289			142800.00000
0.00244			-0.22049			142901.00000
0.00244			-0.18885			143000.00000
0.00244			-0.17676			143100.00000
0.00244			-0.16643			143201.00000
0.00244			-0.15612			143300.00000
6.25000			-26.98278			144290.00000
6.25000			-28.09600			144391.00000
6.25000			-28.47559			144490.00000
6.25000			-28.35259			144590.00000
6.25000			-28.30226			144691.00000
6.25000			-28.25936			144790.00000
6.25000			-28.22266			144890.00000
6.25000			-28.19086			144991.00000
6.25000			-28.16163			145090.00000
6.25000			-28.13487			145190.00000
-6.25000			27.20208			147314.00000
-6.25000			27.85002			147415.00000
-6.25000			27.95455			147514.00000
-6.25000			27.85916			147614.00000
-6.25000			27.79525			147715.00000
-6.25000			27.75061			147814.00000
-6.25000			27.71197			147914.00000
-6.25000			27.64861			148015.00000
-6.25000			27.62061			148114.00000
-6.25000			27.59550			148214.00000
0.00244			0.48110			149462.00000
0.00244			-0.09972			149563.00000
0.00244			-0.29708			149663.00000
0.00244			-0.30218			149764.00000
0.00244			-0.24606			149863.00000
0.00244			-0.22834			149963.00000
0.00244			-0.21200			150064.00000
0.00244			-0.19757			150163.00000
0.00244			-0.18558			150263.00000
0.00244			-0.17578			150364.00000
6.50000			-29.00107			151383.00000
6.50000			-29.77098			151484.00000
6.50000			-29.97786			151584.00000
6.50000			-29.91603			151685.00000
6.50000			-29.84973			151784.00000
6.50000			-29.75833			151884.00000
6.50000			-29.72134			151985.00000
6.50000			-29.68906			152084.00000
6.50000			-29.65986			152184.00000
6.50000			-29.63306			152285.00000
-6.50000			28.51054			154456.00000
-6.50000			29.25403			154557.00000
-6.50000			29.44501			154657.00000
-6.50000			29.39026			154758.00000
-6.50000			29.32675			154857.00000
-6.50000			29.23948			154957.00000
-6.50000			29.20409			155058.00000
-6.50000			29.17094			155157.00000
-6.50000			29.13987			155257.00000
-6.50000			29.11461			155358.00000
0.00244			0.09719			156623.00000
0.00244			-0.25269			156724.00000
0.00244			-0.32548			156823.00000
0.00244			-0.29814			156923.00000
0.00244			-0.26993			157024.00000
0.00244			-0.24950			157123.00000
0.00244			-0.23040			157223.00000
0.00244			-0.21421			157323.00000
0.00244			-0.18968			157423.00000
0.00244			-0.17885			157524.00000
6.75000			-29.50040			158550.00000
6.75000			-31.39739			158650.00000
6.75000			-31.43582			158750.00000
6.75000			-31.33307			158851.00000
6.75000			-31.27171			158950.00000
6.75000			-31.22340			159050.00000
6.75000			-31.18296			159151.00000
6.75000			-31.14702			159250.00000
6.75000			-31.08411			159350.00000
6.75000			-31.05679			159451.00000
-6.75000			30.01623			161652.00000
-6.75000			30.78775			161754.00000
-6.75000			30.96397			161854.00000
-6.75000			30.86483			161953.00000
-6.75000			30.79215			162054.00000
-6.75000			30.74235			162153.00000
-6.75000			30.66338			162253.00000
-6.75000			30.62819			162354.00000
-6.75000			30.59815			162453.00000
-6.75000			30.57000			162553.00000
0.00244			0.12825			163844.00000
0.00244			-0.24671			163945.00000
0.00244			-0.34142			164045.00000
0.00244			-0.31945			164146.00000
0.00244			-0.29067			164245.00000
0.00244			-0.26742			164345.00000
0.00244			-0.23372			164446.00000
0.00244			-0.21911			164545.00000
0.00244			-0.20647			164645.00000
0.00244			-0.19541			164746.00000
7.00000			-32.03157			165789.00000
7.00000			-32.82591			165891.00000
7.00000			-33.03126			165990.00000
7.00000			-32.95697			166090.00000
7.00000			-32.88400			166191.00000
7.00000			-32.83064			166290.00000
7.00000			-32.74583			166390.00000
7.00000			-32.71072			166491.00000
7.00000			-32.67799			166590.00000
7.00000			-32.64808			166690.00000
-7.00000			30.65521			168918.00000
-7.00000			32.49803			169018.00000
-7.00000			32.55102			169118.00000
-7.00000			32.46701			169219.00000
-7.00000			32.40619			169318.00000
-7.00000			32.35783			169418.00000
-7.00000			32.31585			169519.00000
-7.00000			32.27865			169618.00000
-7.00000			32.21237			169718.00000
-7.00000			32.18395			169819.00000
0.00244			0.73647			171115.00000
0.00244			-0.30716			171215.00000
0.00244			-0.35821			171316.00000
0.00244			-0.32868			171415.00000
0.00244			-0.29877			171515.00000
0.00244			-0.27655			171616.00000
0.00244			-0.25795			171715.00000
0.00244			-0.24090			171815.00000
0.00244			-0.21376			171916.00000
0.00244			-0.20333			172015.00000
7.25000			-33.71293			173078.00000
7.25000			-34.44024			173179.00000
7.25000			-34.59788			173280.00000
7.25000			-34.50234			173379.00000
7.25000			-34.42694			173479.00000
7.25000			-34.37300			173580.00000
7.25000			-34.28674			173680.00000
7.25000			-34.24986			173780.00000
7.25000			-34.21630			173879.00000
7.25000			-34.18617			173979.00000
-7.25000			33.10854			176255.00000
-7.25000			33.95810			176356.00000
-7.25000			34.18180			176456.00000
-7.25000			34.08126			176557.00000
-7.25000			33.99487			176656.00000
-7.25000			33.89328			176756.00000
-7.25000			33.85175			176857.00000
-7.25000			33.81395			176956.00000
-7.25000			33.77984			177056.00000
-7.25000			33.74908			177157.00000
0.00244			0.39154			178483.00000
0.00244			-0.15708			178584.00000
0.00244			-0.36394			178684.00000
0.00244			-0.33064			178785.00000
0.00244			-0.30344			178884.00000
0.00244			-0.28250			178985.00000
0.00244			-0.26418			179084.00000
0.00244			-0.24754			179184.00000
0.00244			-0.23264			179285.00000
0.00244			-0.22017			179384.00000
7.50000			-35.31810			180459.00000
7.50000			-36.07235			180560.00000
7.50000			-36.23943			180661.00000
7.50000			-36.14864			180760.00000
7.50000			-36.07378			180860.00000
7.50000			-36.01741			180961.00000
7.50000			-35.92601			181060.00000
7.50000			-35.88726			181161.00000
7.50000			-35.85265			181260.00000
7.50000			-35.82072			181360.00000
-7.50000			34.57044			183648.00000
-7.50000			35.57242			183749.00000
-7.50000			35.88653			183850.00000
-7.50000			35.83646			183949.00000
-7.50000			35.69370			184049.00000
-7.50000			35.64333			184150.00000
-7.50000			35.59824			184249.00000
-7.50000			35.55890			184349.00000
-7.50000			35.52316			184450.00000
-7.50000			35.49118			184549.00000
0.00244			0.60655			185876.00000
0.00244			-0.07901			185977.00000
0.00244			-0.38850			186078.00000
0.00244			-0.35396			186177.00000
0.00244			-0.32486			186277.00000
0.00244			-0.30276			186378.00000
0.00244			-0.28248			186477.00000
0.00244			-0.26536			186577.00000
0.00244			-0.24985			186678.00000
0.00244			-0.22502			186777.00000
7.75000			-36.57661			187872.00000
7.75000			-37.56831			187972.00000
7.75000			-37.86870			188073.00000
7.75000			-37.78173			188172.00000
7.75000			-37.62160			188272.00000
7.75000			-37.56970			188373.00000
7.75000			-37.52453			188472.00000
7.75000			-37.48366			188572.00000
7.75000			-37.44704			188673.00000
7.75000			-37.41303			188772.00000
-7.75000			36.50365			191109.00000
-7.75000			37.39717			191210.00000
-7.75000			37.62150			191310.00000
-7.75000			37.50138			191411.00000
-7.75000			37.40788			191510.00000
-7.75000			37.29807			191610.00000
-7.75000			37.25179			191711.00000
-7.75000			37.21120			191810.00000
-7.75000			37.17460			191910.00000
-7.75000			37.14045			192011.00000
0.00244			0.57136			193343.00000
0.00244			-0.11272			193444.00000
0.00244			-0.40551			193545.00000
0.00244			-0.37017			193644.00000
0.00244			-0.34094			193744.00000
0.00244			-0.31769			193845.00000
0.00244			-0.29806			193944.00000
0.00244			-0.28014			194044.00000
0.00244			-0.26446			194145.00000
0.00244			-0.23897			194244.00000
8.00000			-38.13345			195344.00000
8.00000			-39.21730			195445.00000
8.00000			-39.56639			195546.00000
8.00000			-39.51407			195645.00000
8.00000			-39.35863			195745.00000
8.00000			-39.30396			195846.00000
8.00000			-39.25532			195945.00000
8.00000			-39.21232			196045.00000
8.00000			-39.17210			196146.00000
8.00000			-39.13656			196245.00000
-8.00000			38.13061			198582.00000
-8.00000			39.14861			198683.00000
-8.00000			39.43731			198784.00000
-8.00000			39.35627			198883.00000
-8.00000			39.26682			198983.00000
-8.00000			39.14652			199084.00000
-8.00000			39.09826			199183.00000
-8.00000			39.05533			199283.00000
-8.00000			39.01665			199384.00000
-8.00000			38.98091			199483.00000
0.00244			0.74150			200835.00000
0.00244			-0.36791			200935.00000
0.00244			-0.42979			201035.00000
0.00244			-0.39749			201136.00000
0.00244			-0.36331			201235.00000
0.00244			-0.33667			201334.00000
0.00244			-0.31674			201436.00000
0.00244			-0.29690			201535.00000
0.00244			-0.26750			201635.00000
0.00244			-0.25455			201736.00000
8.25000			-40.58469			202871.00000
8.25000			-41.19469			202973.00000
8.25000			-41.27726			203072.00000
8.25000			-41.14824			203172.00000
8.25000			-41.06490			203273.00000
8.25000			-41.00372			203372.00000
8.25000			-40.95204			203472.00000
8.25000			-40.86319			203573.00000
8.25000			-40.82551			203672.00000
8.25000			-40.78944			203772.00000
-8.25000			39.94230			206157.00000
-8.25000			40.97479			206259.00000
-8.25000			41.29755			206358.00000
-8.25000			41.19319			206458.00000
-8.25000			41.00478			206559.00000
-8.25000			40.94815			206658.00000
-8.25000			40.89607			206758.00000
-8.25000			40.85113			206859.00000
-8.25000			40.81131			206958.00000
-8.25000			40.77386			207058.00000
0.00244			0.14308			208429.00000
0.00244			-0.31596			208529.00000
0.00244			-0.44827			208629.00000
0.00244			-0.42791			208730.00000
0.00244			-0.39212			208829.00000
0.00244			-0.33984			208929.00000
0.00244			-0.32073			209030.00000
0.00244			-0.30332			209129.00000
0.00244			-0.28758			209229.00000
0.00244			-0.27456			209330.00000
8.50000			-41.69184			210459.00000
8.50000			-42.75897			210561.00000
8.50000			-43.08304			210660.00000
8.50000			-43.02221			210759.00000
8.50000			-42.85667			210861.00000
8.50000			-42.79740			210960.00000
8.50000			-42.74648			211060.00000
8.50000			-42.70000			211161.00000
8.50000			-42.65760			211260.00000
8.50000			-42.61892			211360.00000
-8.50000			40.82433			213751.00000
-8.50000			43.17951			213853.00000
-8.50000			43.24056			213952.00000
-8.50000			43.11843			214052.00000
-8.50000			43.03614			214153.00000
-8.50000			42.97154			214252.00000
-8.50000			42.91428			214352.00000
-8.50000			42.86374			214453.00000
-8.50000			42.77682			214552.00000
-8.50000			42.73791			214652.00000
0.00244			0.56731			216028.00000
0.00244			-0.14285			216129.00000
0.00244			-0.47260			216229.00000
0.00244			-0.43708			216330.00000
0.00244			-0.40398			216429.00000
0.00244			-0.37628			216529.00000
0.00244			-0.35464			216630.00000
0.00244			-0.33594			216729.00000
0.00244			-0.31940			216829.00000
0.00244			-0.29248			216930.00000
8.75000			-43.94291			218084.00000
8.75000			-44.72425			218184.00000
8.75000			-44.86870			218285.00000
8.75000			-44.71960			218384.00000
8.75000			-44.62112			218484.00000
8.75000			-44.55275			218585.00000
8.75000			-44.44437			218684.00000
8.75000			-44.39865			218784.00000
8.75000			-44.35627			218885.00000
8.75000			-44.31752			218984.00000
-8.75000			44.00949			221436.00000
-8.75000			45.00388			221538.00000
-8.75000			45.25820			221637.00000
-8.75000			45.09721			221738.00000
-8.75000			44.97581			221837.00000
-8.75000			44.84116			221937.00000
-8.75000			44.78606			222038.00000
-8.75000			44.73788			222137.00000
-8.75000			44.69450			222237.00000
-8.75000			44.65390			222338.00000
0.00244			0.21924			223750.00000
0.00244			-0.28630			223850.00000
0.00244			-0.46488			223950.00000
0.00244			-0.42969			224051.00000
0.00244			-0.39840			224150.00000
0.00244			-0.37364			224250.00000
0.00244			-0.35230			224351.00000
0.00244			-0.33370			224450.00000
0.00244			-0.31669			224550.00000
0.00244			-0.30161			224651.00000
9.00000			-45.81981			225805.00000
9.00000			-46.63949			225905.00000
9.00000			-46.78751			226006.00000
9.00000			-46.67264			226105.00000
9.00000			-46.58261			226205.00000
9.00000			-46.51319			226306.00000
9.00000			-46.45211			226405.00000
9.00000			-46.34873			226505.00000
9.00000			-46.30449			226606.00000
9.00000			-46.26450			226705.00000
-9.00000			45.59352			229182.00000
-9.00000			46.91146			229283.00000
-9.00000			47.34504			229384.00000
-9.00000			47.26169			229483.00000
-9.00000			47.06091			229583.00000
-9.00000			46.99174			229684.00000
-9.00000			46.93229			229783.00000
-9.00000			46.87853			229883.00000
-9.00000			46.83092			229984.00000
-9.00000			46.78653			230083.00000
0.00244			-0.18020			231514.00000
0.00244			-0.44809			231615.00000
0.00244			-0.49806			231714.00000
0.00244			-0.46247			231816.00000
0.00244			-0.42781			231915.00000
0.00244			-0.40006			232015.00000
0.00244			-0.37744			232116.00000
0.00244			-0.34092			232215.00000
0.00244			-0.32697			232315.00000
0.00244			-0.31249			232415.00000
9.25000			-46.86382			233600.00000
9.25000			-48.16023			233701.00000
9.25000			-48.62764			233801.00000
9.25000			-48.48812			233902.00000
9.25000			-48.40391			234001.00000
9.25000			-48.33620			234101.00000
9.25000			-48.27746			234202.00000
9.25000			-48.22400			234301.00000
9.25000			-48.17599			234401.00000
9.25000			-48.09161			234502.00000
-9.25000			48.18650			236989.00000
-9.25000			49.18640			237090.00000
-9.25000			49.43848			237191.00000
-9.25000			49.25572			237290.00000
-9.25000			49.12751			237390.00000
-9.25000			48.98288			237491.00000
-9.25000			48.92256			237590.00000
-9.25000			48.86827			237690.00000
-9.25000			48.81998			237791.00000
-9.25000			48.77512			237890.00000
0.00244			0.38320			239333.00000
0.00244			-0.47622			239434.00000
0.00244			-0.51505			239535.00000
0.00244			-0.47820			239634.00000
0.00244			-0.44407			239734.00000
0.00244			-0.41617			239835.00000
0.00244			-0.39144			239934.00000
0.00244			-0.37188			240034.00000
0.00244			-0.33818			240135.00000
0.00244			-0.32420			240234.00000
9.50000			-48.67550			241425.00000
9.50000			-50.11322			241526.00000
9.50000			-50.66876			241627.00000
9.50000			-50.53791			241726.00000
9.50000			-50.45116			241826.00000
9.50000			-50.37918			241927.00000
9.50000			-50.31554			242026.00000
9.50000			-50.25991			242126.00000
9.50000			-50.20921			242227.00000
9.50000			-50.12185			242326.00000
-9.50000			49.00437			244870.00000
-9.50000			51.59029			244971.00000
-9.50000			51.65820			245071.00000
-9.50000			51.49168			245172.00000
-9.50000			51.38878			245271.00000
-9.50000			51.30951			245371.00000
-9.50000			51.24066			245472.00000
-9.50000			51.17943			245571.00000
-9.50000			51.07354			245671.00000
-9.50000			51.02782			245772.00000
0.00244			0.21283			247232.00000
0.00244			-0.51229			247333.00000
0.00244			-0.52953			247434.00000
0.00244			-0.48934			247533.00000
0.00244			-0.45433			247633.00000
0.00244			-0.42733			247734.00000
0.00244			-0.40443			247833.00000
0.00244			-0.38422			247933.00000
0.00244			-0.36681			248034.00000
0.00244			-0.33830			248133.00000
9.75000			-50.67710			249343.00000
9.75000			-52.15197			249442.00000
9.75000			-52.66641			249542.00000
9.75000			-52.49469			249643.00000
9.75000			-52.40152			249742.00000
9.75000			-52.32717			249842.00000
9.75000			-52.26174			249943.00000
9.75000			-52.20408			250042.00000
9.75000			-52.15165			250142.00000
9.75000			-52.06114			250243.00000
-9.75000			52.70244			252810.00000
-9.75000			53.73038			252910.00000
-9.75000			53.94579			253010.00000
-9.75000			53.73488			253111.00000
-9.75000			53.59511			253210.00000
-9.75000			53.50819			253311.00000
-9.75000			53.36696			253410.00000
-9.75000			53.30824			253510.00000
-9.75000			53.25383			253611.00000
-9.75000			53.20448			253710.00000
0.00244			-0.16836			255177.00000
0.00244			-0.48167			255278.00000
0.00244			-0.55522			255377.00000
0.00244			-0.52473			255477.00000
0.00244			-0.48720			255578.00000
0.00244			-0.45596			255677.00000
0.00244			-0.40921			255777.00000
0.00244			-0.39000			255878.00000
0.00244			-0.37349			255977.00000
0.00244			-0.35879			256077.00000
10.00000			-53.51965			257305.00000
10.00000			-54.55445			257407.00000
10.00000			-54.85226			257506.00000
10.00000			-54.73241			257606.00000
10.00000			-54.52037			257707.00000
10.00000			-54.44632			257806.00000
10.00000			-54.38097			257906.00000
10.00000			-54.32286			258007.00000
10.00000			-54.27033			258106.00000
10.00000			-54.22270			258206.00000
-10.00000			55.00842			260811.00000
-10.00000			56.05155			260912.00000
-10.00000			56.30230			261011.00000
-10.00000			56.12668			261111.00000
-10.00000			55.98683			261212.00000
-10.00000			55.81426			261311.00000
-10.00000			55.74292			261411.00000
-10.00000			55.67850			261512.00000
-10.00000			55.62207			261611.00000
-10.00000			55.57032			261711.00000
0.00244			-0.06602			263196.00000
0.00244			-0.45189			263298.00000
0.00244			-0.57291			263397.00000
0.00244			-0.55454			263497.00000
0.00244			-0.48147			263598.00000
0.00244			-0.45392			263697.00000
0.00244			-0.43115			263797.00000
0.00244			-0.41167			263897.00000
0.00244			-0.39415			263997.00000
0.00244			-0.37920			264097.00000
10.25000			-54.94804			265325.00000
10.25000			-56.45119			265426.00000
10.25000			-56.86736			265527.00000
10.25000			-56.67889			265626.00000
10.25000			-56.58061			265727.00000
10.25000			-56.50016			265826.00000
10.25000			-56.42978			265926.00000
10.25000			-56.36634			266027.00000
10.25000			-56.30973			266126.00000
10.25000			-56.25863			266226.00000
-10.25000			56.93857			268819.00000
-10.25000			58.32703			268919.00000
-10.25000			58.72441			269020.00000
-10.25000			58.50963			269119.00000
-10.25000			58.22277			269219.00000
-10.25000			58.13562			269320.00000
-10.25000			58.06012			269419.00000
-10.25000			57.99105			269519.00000
-10.25000			57.92879			269620.00000
-10.25000			57.87268			269719.00000
0.00244			0.02671			271199.00000
0.00244			-0.44231			271299.00000
0.00244			-0.59649			271399.00000
0.00244			-0.58420			271500.00000
0.00244			-0.50640			271599.00000
0.00244			-0.47838			271700.00000
0.00244			-0.45428			271799.00000
0.00244			-0.43211			271899.00000
0.00244			-0.41361			272000.00000
0.00244			-0.39853			272099.00000
10.50000			-56.59172			273339.00000
10.50000			-59.10960			273440.00000
10.50000			-59.14662			273541.00000
10.50000			-58.97714			273640.00000
10.50000			-58.86770			273740.00000
10.50000			-58.77953			273841.00000
10.50000			-58.70226			273940.00000
10.50000			-58.63422			274040.00000
10.50000			-58.51885			274141.00000
10.50000			-58.46735			274240.00000
-10.50000			59.77375			276881.00000
-10.50000			60.91749			276982.00000
-10.50000			61.14413			277083.00000
-10.50000			60.93863			277182.00000
-10.50000			60.79234			277282.00000
-10.50000			60.68758			277383.00000
-10.50000			60.51712			277482.00000
-10.50000			60.44553			277582.00000
-10.50000			60.38096			277683.00000
-10.50000			60.32275			277782.00000
0.00244			-0.02859			279292.00000
0.00244			-0.45794			279393.00000
0.00244			-0.61031			279492.00000
0.00244			-0.56110			279593.00000
0.00244			-0.52594			279692.00000
0.00244			-0.49766			279792.00000
0.00244			-0.47169			279893.00000
0.00244			-0.45013			279992.00000
0.00244			-0.43082			280092.00000
0.00244			-0.41335			280193.00000
10.75000			-60.29819			281456.00000
10.75000			-61.22971			281558.00000
10.75000			-61.37212			281657.00000
10.75000			-61.10645			281757.00000
10.75000			-60.95401			281858.00000
10.75000			-60.86025			281957.00000
10.75000			-60.70643			282057.00000
10.75000			-60.63911			282158.00000
10.75000			-60.57947			282257.00000
10.75000			-60.52490			282357.00000
-10.75000			61.01112			285035.00000
-10.75000			63.58281			285136.00000
-10.75000			63.53854			285237.00000
-10.75000			63.24851			285336.00000
-10.75000			63.10876			285436.00000
-10.75000			63.00473			285537.00000
-10.75000			62.91326			285636.00000
-10.75000			62.83328			285737.00000
-10.75000			62.69501			285836.00000
-10.75000			62.63409			285936.00000
0.00244			-0.12933			287465.00000
0.00244			-0.51437			287565.00000
0.00244			-0.63985			287666.00000
0.00244			-0.58093			287765.00000
0.00244			-0.54725			287865.00000
0.00244			-0.51809			287966.00000
0.00244			-0.49291			288065.00000
0.00244			-0.47172			288165.00000
0.00244			-0.45357			288266.00000
0.00244			-0.43500			288365.00000
11.00000			-62.32364			289636.00000
11.00000			-63.42510			289737.00000
11.00000			-63.66672			289838.00000
11.00000			-63.48020			289937.00000
11.00000			-63.33070			290037.00000
11.00000			-63.13573			290138.00000
11.00000			-63.05736			290237.00000
11.00000			-62.98715			290337.00000
11.00000			-62.92384			290438.00000
11.00000			-62.86502			290537.00000
-11.00000			64.98537			293221.00000
-11.00000			66.00114			293321.00000
-11.00000			66.11822			293422.00000
-11.00000			65.87882			293521.00000
-11.00000			65.72021			293621.00000
-11.00000			65.60243			293722.00000
-11.00000			65.50026			293821.00000
-11.00000			65.33044			293921.00000
-11.00000			65.25660			294022.00000
-11.00000			65.19072			294121.00000
0.00244			0.02676			295649.00000
0.00244			-0.46810			295750.00000
0.00244			-0.66194			295851.00000
0.00244			-0.61780			295950.00000
0.00244			-0.57922			296050.00000
0.00244			-0.54805			296151.00000
0.00244			-0.52121			296250.00000
0.00244			-0.49884			296350.00000
0.00244			-0.47888			296451.00000
0.00244			-0.44573			296550.00000
11.00000			-61.71007			297821.00000
11.00000			-62.97071			297921.00000
11.00000			-63.32378			298021.00000
11.00000			-63.16727			298122.00000
11.00000			-62.90801			298221.00000
11.00000			-62.82071			298321.00000
11.00000			-62.74362			298422.00000
11.00000			-62.67485			298521.00000
11.00000			-62.61304			298621.00000
11.00000			-62.55602			298722.00000
-11.00000			64.33477			301406.00000
-11.00000			65.52325			301506.00000
-11.00000			65.76096			301606.00000
-11.00000			65.54024			301707.00000
-11.00000			65.37503			301806.00000
-11.00000			65.26037			301906.00000
-11.00000			65.07288			302006.00000
-11.00000			64.99459			302106.00000
-11.00000			64.92336			302207.00000
-11.00000			64.85864			302306.00000
0.00244			0.13039			303835.00000
0.00244			-0.65121			303935.00000
0.00244			-0.67617			304035.00000
0.00244			-0.63324			304136.00000
0.00244			-0.59209			304235.00000
0.00244			-0.55984			304335.00000
0.00244			-0.53405			304436.00000
0.00244			-0.51151			304535.00000
0.00244			-0.47257			304635.00000
0.00244			-0.45581			304736.00000
10.75000			-58.86199			305999.00000
10.75000			-60.10761			306101.00000
10.75000			-60.48687			306200.00000
10.75000			-60.09824			306300.00000
10.75000			-60.00263			306401.00000
10.75000			-59.92347			306500.00000
10.75000			-59.85465			306601.00000
10.75000			-59.79179			306700.00000
10.75000			-59.73631			306800.00000
10.75000			-59.68565			306901.00000
-10.75000			61.40762			309577.00000
-10.75000			62.42765			309679.00000
-10.75000			62.60782			309778.00000
-10.75000			62.33646			309878.00000
-10.75000			62.17251			309979.00000
-10.75000			62.07187			310078.00000
-10.75000			61.90675			310178.00000
-10.75000			61.83856			310279.00000
-10.75000			61.77636			310378.00000
-10.75000			61.71937			310478.00000
0.00244			0.01914			312007.00000
0.00244			-0.65133			312108.00000
0.00244			-0.66300			312207.00000
0.00244			-0.61971			312307.00000
0.00244			-0.58354			312408.00000
0.00244			-0.55373			312507.00000
0.00244			-0.52684			312607.00000
0.00244			-0.50434			312708.00000
0.00244			-0.46626			312807.00000
0.00244			-0.45055			312907.00000
10.50000			-56.55204			314147.00000
10.50000			-57.65375			314249.00000
10.50000			-57.93554			314348.00000
10.50000			-57.79368			314448.00000
10.50000			-57.67205			314549.00000
10.50000			-57.58408			314648.00000
10.50000			-57.44584			314748.00000
10.50000			-57.38692			314849.00000
10.50000			-57.33368			314948.00000
10.50000			-57.28616			315049.00000
-10.50000			57.60090			317688.00000
-10.50000			59.17717			317790.00000
-10.50000			59.72886			317889.00000
-10.50000			59.44621			317989.00000
-10.50000			59.34057			318090.00000
-10.50000			59.25267			318189.00000
-10.50000			59.17578			318289.00000
-10.50000			59.10737			318390.00000
-10.50000			59.04687			318489.00000
-10.50000			58.99185			318589.00000
0.00244			-0.38493			320100.00000
0.00244			-0.62052			320200.00000
0.00244			-0.65631			320301.00000
0.00244			-0.61607			320400.00000
0.00244			-0.57613			320499.00000
0.00244			-0.54494			320601.00000
0.00244			-0.51920			320700.00000
0.00244			-0.49653			320800.00000
0.00244			-0.45953			320901.00000
0.00244			-0.44311			321000.00000
10.25000			-54.29657			322228.00000
10.25000			-55.29141			322329.00000
10.25000			-55.47530			322429.00000
10.25000			-55.27626			322530.00000
10.25000			-55.15310			322629.00000
10.25000			-55.07226			322730.00000
10.25000			-54.94156			322829.00000
10.25000			-54.88662			322929.00000
10.25000			-54.83707			323030.00000
10.25000			-54.79236			323129.00000
-10.25000			55.97150			325728.00000
-10.25000			56.90179			325829.00000
-10.25000			56.98658			325930.00000
-10.25000			56.74782			326029.00000
-10.25000			56.62548			326129.00000
-10.25000			56.53859			326230.00000
-10.25000			56.46296			326329.00000
-10.25000			56.33500			326429.00000
-10.25000			56.28066			326530.00000
-10.25000			56.23061			326629.00000
0.00244			-0.27338			328109.00000
0.00244			-0.58631			328209.00000
0.00244			-0.65035			328309.00000
0.00244			-0.61285			328410.00000
0.00244			-0.57369			328509.00000
0.00244			-0.54200			328609.00000
0.00244			-0.51432			328710.00000
0.00244			-0.47024			328809.00000
0.00244			-0.45357			328909.00000
0.00244			-0.43741			329010.00000
10.00000			-51.96829			330236.00000
10.00000			-52.91595			330337.00000
10.00000			-53.16962			330437.00000
10.00000			-53.05100			330538.00000
10.00000			-52.93805			330637.00000
10.00000			-52.79287			330737.00000
10.00000			-52.73257			330838.00000
10.00000			-52.67943			330937.00000
10.00000			-52.63226			331037.00000
10.00000			-52.58958			331138.00000
-10.00000			52.07841			333711.00000
-10.00000			54.35987			333812.00000
-10.00000			54.36992			333913.00000
-10.00000			54.19717			334012.00000
-10.00000			54.09761			334112.00000
-10.00000			54.01833			334213.00000
-10.00000			53.94916			334312.00000
-10.00000			53.88733			334412.00000
-10.00000			53.78161			334513.00000
-10.00000			53.73589			334612.00000
0.00244			-0.35270			336098.00000
0.00244			-0.59176			336198.00000
0.00244			-0.63027			336299.00000
0.00244			-0.59108			336398.00000
0.00244			-0.55308			336498.00000
0.00244			-0.52367			336599.00000
0.00244			-0.49831			336698.00000
0.00244			-0.45764			336798.00000
0.00244			-0.44053			336899.00000
0.00244			-0.42449			336998.00000
9.75000			-50.12295			338207.00000
9.75000			-50.83115			338309.00000
9.75000			-50.89736			338408.00000
9.75000			-50.73064			338508.00000
9.75000			-50.63422			338609.00000
9.75000			-50.56329			338708.00000
9.75000			-50.50153			338808.00000
9.75000			-50.39798			338909.00000
9.75000			-50.35492			339008.00000
9.75000			-50.31493			339108.00000
-9.75000			50.32834			341677.00000
-9.75000			51.56302			341778.00000
-9.75000			51.94356			341878.00000
-9.75000			51.78938			341979.00000
-9.75000			51.54718			342078.00000
-9.75000			51.47615			342178.00000
-9.75000			51.41294			342279.00000
-9.75000			51.35754			342378.00000
-9.75000			51.30750			342478.00000
-9.75000			51.26147			342579.00000
0.00244			-0.12355			344045.00000
0.00244			-0.50030			344146.00000
0.00244			-0.61439			344246.00000
0.00244			-0.59671			344346.00000
0.00244			-0.52304			344447.00000
0.00244			-0.49530			344546.00000
0.00244			-0.47260			344646.00000
0.00244			-0.45304			344747.00000
0.00244			-0.43500			344846.00000
0.00244			-0.42009			344946.00000
9.50000			-47.61041			346137.00000
9.50000			-48.55729			346239.00000
9.50000			-48.80264			346338.00000
9.50000			-48.69488			346438.00000
9.50000			-48.59600			346539.00000
9.50000			-48.52293			346638.00000
9.50000			-48.40691			346738.00000
9.50000			-48.35827			346839.00000
9.50000			-48.31424			346938.00000
9.50000			-48.27480			347038.00000
-9.50000			48.04766			349576.00000
-9.50000			49.23227			349677.00000
-9.50000			49.59615			349777.00000
-9.50000			49.48674			349878.00000
-9.50000			49.28490			349977.00000
-9.50000			49.21563			350077.00000
-9.50000			49.15684			350178.00000
-9.50000			49.10464			350277.00000
-9.50000			49.05500			350378.00000
-9.50000			49.01055			350477.00000
0.00244			-0.19848			351938.00000
0.00244			-0.51254			352039.00000
0.00244			-0.60026			352140.00000
0.00244			-0.57291			352239.00000
0.00244			-0.53280			352340.00000
0.00244			-0.47803			352439.00000
0.00244			-0.45621			352539.00000
0.00244			-0.43570			352640.00000
0.00244			-0.41884			352739.00000
0.00244			-0.40486			352839.00000
9.25000			-45.88788			354024.00000
9.25000			-46.58653			354125.00000
9.25000			-46.68878			354226.00000
9.25000			-46.55275			354325.00000
9.25000			-46.46452			354425.00000
9.25000			-46.39840			354526.00000
9.25000			-46.34018			354625.00000
9.25000			-46.24670			354725.00000
9.25000			-46.20561			354826.00000
9.25000			-46.16768			354925.00000
-9.25000			45.53164			357413.00000
-9.25000			46.80373			357515.00000
-9.25000			47.26958			357614.00000
-9.25000			47.02524			357714.00000
-9.25000			46.94589			357815.00000
-9.25000			46.88074			357914.00000
-9.25000			46.82359			358015.00000
-9.25000			46.77241			358114.00000
-9.25000			46.72704			358214.00000
-9.25000			46.68461			358315.00000
0.00244			-0.18543			359756.00000
0.00244			-0.50258			359858.00000
0.00244			-0.58417			359957.00000
0.00244			-0.55587			360057.00000
0.00244			-0.51769			360158.00000
0.00244			-0.46244			360257.00000
0.00244			-0.44017			360357.00000
0.00244			-0.42079			360457.00000
0.00244			-0.40586			360557.00000
0.00244			-0.39043			360657.00000
9.00000			-42.83131			361813.00000
9.00000			-44.19043			361913.00000
9.00000			-44.71578			362013.00000
9.00000			-44.61165			362114.00000
9.00000			-44.53627			362213.00000
9.00000			-44.47471			362313.00000
9.00000			-44.42253			362414.00000
9.00000			-44.37452			362513.00000
9.00000			-44.33079			362613.00000
9.00000			-44.29148			362714.00000
-9.00000			44.13562			365184.00000
-9.00000			45.00029			365285.00000
-9.00000			45.14525			365385.00000
-9.00000			45.02070			365486.00000
-9.00000			44.93190			365585.00000
-9.00000			44.86217			365685.00000
-9.00000			44.80240			365786.00000
-9.00000			44.70297			365885.00000
-9.00000			44.65948			365985.00000
-9.00000			44.62123			366086.00000
0.00244			-0.00081			367515.00000
0.00244			-0.41655			367617.00000
0.00244			-0.55723			367716.00000
0.00244			-0.51103			367816.00000
0.00244			-0.47939			367917.00000
0.00244			-0.45425			368016.00000
0.00244			-0.43289			368116.00000
0.00244			-0.41275			368217.00000
0.00244			-0.39586			368316.00000
0.00244			-0.38050			368416.00000
8.75000			-40.74719			369570.00000
8.75000			-42.74032			369672.00000
8.75000			-42.76847			369771.00000
8.75000			-42.63314			369871.00000
8.75000			-42.55518			369972.00000
8.75000			-42.49523			370071.00000
8.75000			-42.44315			370171.00000
8.75000			-42.39720			370272.00000
8.75000			-42.31901			370371.00000
8.75000			-42.28407			370471.00000
-8.75000			42.16408			372924.00000
-8.75000			42.91823			373025.00000
-8.75000			43.02045			373126.00000
-8.75000			42.85172			373225.00000
-8.75000			42.75887			373325.00000
-8.75000			42.69496			373426.00000
-8.75000			42.63956			373525.00000
-8.75000			42.54719			373625.00000
-8.75000			42.50835			373726.00000
-8.75000			42.47045			373825.00000
0.00244			-0.06416			375237.00000
0.00244			-0.43671			375339.00000
0.00244			-0.54826			375438.00000
0.00244			-0.52852			375538.00000
0.00244			-0.49135			375639.00000
0.00244			-0.43645			375738.00000
0.00244			-0.41491			375838.00000
0.00244			-0.39594			375939.00000
0.00244			-0.37945			376038.00000
0.00244			-0.36623			376138.00000
8.50000			-39.53289			377269.00000
8.50000			-40.62362			377369.00000
8.50000			-40.97873			377469.00000
8.50000			-40.93367			377570.00000
8.50000			-40.77685			377669.00000
8.50000			-40.72226			377770.00000
8.50000			-40.67445			377869.00000
8.50000			-40.63162			377969.00000
8.50000			-40.59173			378070.00000
8.50000			-40.55616			378169.00000
-8.50000			40.13621			380567.00000
-8.50000			40.90344			380667.00000
-8.50000			41.02031			380768.00000
-8.50000			40.90846			380867.00000
-8.50000			40.82833			380967.00000
-8.50000			40.76564			381067.00000
-8.50000			40.71140			381167.00000
-8.50000			40.62207			381268.00000
-8.50000			40.58404			381367.00000
-8.50000			40.54910			381467.00000
0.00244			-0.17397			382850.00000
0.00244			-0.48600			382951.00000
0.00244			-0.54031			383051.00000
0.00244			-0.50334			383151.00000
0.00244			-0.46762			383251.00000
0.00244			-0.43970			383351.00000
0.00244			-0.41647			383452.00000
0.00244			-0.37879			383551.00000
0.00244			-0.36429			383651.00000
0.00244			-0.35092			383752.00000
8.25000			-38.41275			384880.00000
8.25000			-39.05827			384982.00000
8.25000			-39.16703			385081.00000
8.25000			-39.04967			385181.00000
8.25000			-38.97133			385282.00000
8.25000			-38.91356			385381.00000
8.25000			-38.86483			385481.00000
8.25000			-38.78140			385582.00000
8.25000			-38.74690			385681.00000
8.25000			-38.71432			385781.00000
-8.25000			37.84269			388161.00000
-8.25000			38.78918			388261.00000
-8.25000			39.07471			388362.00000
-8.25000			38.96726			388461.00000
-8.25000			38.79554			388561.00000
-8.25000			38.74305			388662.00000
-8.25000			38.69532			388761.00000
-8.25000			38.65488			388861.00000
-8.25000			38.61866			388962.00000
-8.25000			38.58425			389061.00000
0.00244			-0.01165			390430.00000
0.00244			-0.41160			390532.00000
0.00244			-0.51581			390631.00000
0.00244			-0.48962			390731.00000
0.00244			-0.45412			390832.00000
0.00244			-0.40109			390931.00000
0.00244			-0.38136			391031.00000
0.00244			-0.36289			391132.00000
0.00244			-0.34715			391231.00000
0.00244			-0.33509			391331.00000
8.00000			-36.60801			392431.00000
8.00000			-37.31628			392532.00000
8.00000			-37.44274			392631.00000
8.00000			-37.35243			392731.00000
8.00000			-37.28107			392832.00000
8.00000			-37.22356			392931.00000
8.00000			-37.17520			393031.00000
8.00000			-37.09585			393132.00000
8.00000			-37.06154			393231.00000
8.00000			-37.02994			393331.00000
-8.00000			35.04172			395667.00000
-8.00000			37.14117			395768.00000
-8.00000			37.19667			395869.00000
-8.00000			37.09467			395968.00000
-8.00000			37.02537			396068.00000
-8.00000			36.97020			396169.00000
-8.00000			36.92278			396268.00000
-8.00000			36.87987			396368.00000
-8.00000			36.80653			396469.00000
-8.00000			36.77546			396568.00000
0.00244			0.19381			397920.00000
0.00244			-0.32038			398021.00000
0.00244			-0.49791			398122.00000
0.00244			-0.48989			398221.00000
0.00244			-0.42069			398321.00000
0.00244			-0.39624			398422.00000
0.00244			-0.37711			398521.00000
0.00244			-0.36004			398621.00000
0.00244			-0.34346			398722.00000
0.00244			-0.32943			398821.00000
7.75000			-34.84644			399909.00000
7.75000			-35.59468			400010.00000
7.75000			-35.74708			400109.00000
7.75000			-35.63938			400209.00000
7.75000			-35.56229			400310.00000
7.75000			-35.50779			400409.00000
7.75000			-35.41954			400509.00000
7.75000			-35.38194			400610.00000
7.75000			-35.34947			400709.00000
7.75000			-35.31976			400810.00000
-7.75000			33.77934			403121.00000
-7.75000			34.96021			403222.00000
-7.75000			35.36342			403322.00000
-7.75000			35.25102			403423.00000
-7.75000			35.18954			403522.00000
-7.75000			35.13887			403622.00000
-7.75000			35.09463			403723.00000
-7.75000			35.05456			403822.00000
-7.75000			35.01953			403922.00000
-7.75000			34.98748			404023.00000
0.00244			-0.02861			405355.00000
0.00244			-0.40199			405456.00000
0.00244			-0.48982			405557.00000
0.00244			-0.45998			405656.00000
0.00244			-0.42406			405756.00000
0.00244			-0.39574			405857.00000
0.00244			-0.37412			405956.00000
0.00244			-0.33953			406057.00000
0.00244			-0.32561			406156.00000
0.00244			-0.31186			406255.00000
7.50000			-32.67430			407331.00000
7.50000			-33.73196			407432.00000
7.50000			-34.11021			407531.00000
7.50000			-34.00761			407631.00000
7.50000			-33.95043			407732.00000
7.50000			-33.90232			407831.00000
7.50000			-33.86072			407931.00000
7.50000			-33.82360			408032.00000
7.50000			-33.78899			408131.00000
7.50000			-33.75912			408231.00000
-7.50000			31.76691			410518.00000
-7.50000			33.64338			410618.00000
-7.50000			33.70323			410719.00000
-7.50000			33.61850			410818.00000
-7.50000			33.55548			410918.00000
-7.50000			33.50607			411019.00000
-7.50000			33.46236			411118.00000
-7.50000			33.42318			411218.00000
-7.50000			33.35559			411319.00000
-7.50000			33.32686			411418.00000
0.00244			0.02206			412751.00000
0.00244			-0.36336			412852.00000
0.00244			-0.46915			412951.00000
0.00244			-0.44729			413051.00000
0.00244			-0.41348			413152.00000
0.00244			-0.38691			413251.00000
0.00244			-0.34552			413351.00000
0.00244			-0.32870			413451.00000
0.00244			-0.31402			413551.00000
0.00244			-0.30057			413652.00000
7.25000			-31.14860			414713.00000
7.25000			-32.15192			414814.00000
7.25000			-32.49406			414914.00000
7.25000			-32.36552			415014.00000
7.25000			-32.31014			415115.00000
7.25000			-32.26442			415214.00000
7.25000			-32.22458			415314.00000
7.25000			-32.18980			415414.00000
7.25000			-32.15775			415514.00000
7.25000			-32.12819			415615.00000
-7.25000			30.45219			417889.00000
-7.25000			31.58402			417989.00000
-7.25000			31.98920			418091.00000
-7.25000			31.88245			418190.00000
-7.25000			31.82429			418290.00000
-7.25000			31.77741			418391.00000
-7.25000			31.73694			418490.00000
-7.25000			31.70133			418590.00000
-7.25000			31.66946			418691.00000
-7.25000			31.61202			418790.00000
0.00244			-0.10505			420117.00000
0.00244			-0.38985			420218.00000
0.00244			-0.44576			420319.00000
0.00244			-0.41614			420418.00000
0.00244			-0.38380			420518.00000
0.00244			-0.35813			420619.00000
0.00244			-0.33865			420718.00000
0.00244			-0.30575			420818.00000
0.00244			-0.29175			420919.00000
0.00244			-0.27961			421018.00000
7.00000			-30.04143			422063.00000
7.00000			-30.77716			422164.00000
7.00000			-30.95710			422264.00000
7.00000			-30.88340			422365.00000
7.00000			-30.81667			422464.00000
7.00000			-30.76608			422564.00000
7.00000			-30.68750			422665.00000
7.00000			-30.65498			422764.00000
7.00000			-30.62549			422864.00000
7.00000			-30.59827			422965.00000
-7.00000			28.72142			425190.00000
-7.00000			29.92426			425291.00000
-7.00000			30.44533			425392.00000
-7.00000			30.36786			425491.00000
-7.00000			30.31292			425591.00000
-7.00000			30.26710			425692.00000
-7.00000			30.22638			425791.00000
-7.00000			30.19089			425891.00000
-7.00000			30.15935			425992.00000
-7.00000			30.10329			426091.00000
0.00244			0.52091			427394.00000
0.00244			-0.38968			427495.00000
0.00244			-0.42766			427595.00000
0.00244			-0.39536			427696.00000
0.00244			-0.36525			427795.00000
0.00244			-0.34242			427895.00000
0.00244			-0.32305			427996.00000
0.00244			-0.30558			428095.00000
0.00244			-0.27828			428195.00000
0.00244			-0.26757			428296.00000
6.75000			-27.70619			429321.00000
6.75000			-28.90488			429422.00000
6.75000			-29.39036			429522.00000
6.75000			-29.29304			429623.00000
6.75000			-29.23678			429722.00000
6.75000			-29.19252			429823.00000
6.75000			-29.15477			429922.00000
6.75000			-29.12277			430022.00000
6.75000			-29.09190			430123.00000
6.75000			-29.03957			430222.00000
-6.75000			28.09330			432425.00000
-6.75000			28.76910			432526.00000
-6.75000			28.90154			432626.00000
-6.75000			28.80346			432727.00000
-6.75000			28.73726			432826.00000
-6.75000			28.69236			432926.00000
-6.75000			28.61761			433027.00000
-6.75000			28.58607			433126.00000
-6.75000			28.55817			433226.00000
-6.75000			28.53213			433327.00000
0.00244			-0.03369			434616.00000
0.00244			-0.34401			434717.00000
0.00244			-0.40911			434818.00000
0.00244			-0.38076			434917.00000
0.00244			-0.34964			435017.00000
0.00244			-0.32611			435118.00000
0.00244			-0.30706			435217.00000
0.00244			-0.27557			435317.00000
0.00244			-0.26325			435418.00000
0.00244			-0.25322			435517.00000
6.50000			-26.28435			436537.00000
6.50000			-27.90722			436638.00000
6.50000			-27.95135			436739.00000
6.50000			-27.87366			436838.00000
6.50000			-27.81977			436938.00000
6.50000			-27.77739			437039.00000
6.50000			-27.74213			437138.00000
6.50000			-27.71061			437238.00000
6.50000			-27.65443			437339.00000
6.50000			-27.63040			437438.00000
-6.50000			25.81702			439610.00000
-6.50000			27.38296			439711.00000
-6.50000			27.42166			439812.00000
-6.50000			27.35099			439911.00000
-6.50000			27.29911			440011.00000
-6.50000			27.25798			440112.00000
-6.50000			27.22212			440211.00000
-6.50000			27.18912			440311.00000
-6.50000			27.13296			440411.00000
-6.50000			27.10863			440511.00000
0.00244			0.32687			441777.00000
0.00244			-0.19772			441877.00000
0.00244			-0.37787			441978.00000
0.00244			-0.37960			442079.00000
0.00244			-0.31963			442178.00000
0.00244			-0.30075			442278.00000
0.00244			-0.28208			442379.00000
0.00244			-0.26601			442478.00000
0.00244			-0.25219			442578.00000
0.00244			-0.24095			442679.00000
6.25000			-25.82649			443668.00000
6.25000			-26.42789			443768.00000
6.25000			-26.51333			443869.00000
6.25000			-26.42352			443968.00000
6.25000			-26.36767			444068.00000
6.25000			-26.32637			444169.00000
6.25000			-26.28970			444268.00000
6.25000			-26.22996			444368.00000
6.25000			-26.20497			444469.00000
6.25000			-26.18137			444568.00000
-6.25000			24.86138			446691.00000
-6.25000			25.73523			446791.00000
-6.25000			25.99276			446892.00000
-6.25000			25.92736			446991.00000
-6.25000			25.80573			447091.00000
-6.25000			25.76735			447192.00000
-6.25000			25.73387			447291.00000
-6.25000			25.70391			447391.00000
-6.25000			25.67619			447492.00000
-6.25000			25.65173			447591.00000
0.00244			0.65358			448838.00000
0.00244			-0.33355			448940.00000
0.00244			-0.37766			449039.00000
0.00244			-0.34685			449139.00000
0.00244			-0.31817			449240.00000
0.00244			-0.29716			449339.00000
0.00244			-0.27906			449439.00000
0.00244			-0.26363			449540.00000
0.00244			-0.23703			449639.00000
0.00244			-0.22701			449739.00000
6.00000			-24.27096			450717.00000
6.00000			-24.97451			450818.00000
6.00000			-25.14161			450917.00000
6.00000			-25.08096			451017.00000
6.00000			-25.02420			451118.00000
6.00000			-24.98158			451217.00000
6.00000			-24.91442			451317.00000
6.00000			-24.88674			451418.00000
6.00000			-24.86241			451517.00000
6.00000			-24.83986			451617.00000
-6.00000			23.46800			453722.00000
-6.00000			24.32865			453823.00000
-6.00000			24.59284			453923.00000
-6.00000			24.56168			454024.00000
-6.00000			24.45837			454123.00000
-6.00000			24.42147			454223.00000
-6.00000			24.38847			454324.00000
-6.00000			24.36034			454423.00000
-6.00000			24.33461			454523.00000
-6.00000			24.31103			454624.00000
0.00244			0.53931			455871.00000
0.00244			-0.31706			455971.00000
0.00244			-0.34979			456072.00000
0.00244			-0.32204			456171.00000
0.00244			-0.29640			456271.00000
0.00244			-0.27469			456372.00000
0.00244			-0.25669			456471.00000
0.00244			-0.24367			456571.00000
0.00244			-0.21871			456672.00000
0.00244			-0.20775			456771.00000
5.75000			-23.05204			457743.00000
5.75000			-23.64615			457844.00000
5.75000			-23.77248			457945.00000
5.75000			-23.69627			458045.00000
5.75000			-23.64017			458144.00000
5.75000			-23.60131			458245.00000
5.75000			-23.53956			458344.00000
5.75000			-23.51382			458444.00000
5.75000			-23.49014			458545.00000
5.75000			-23.46870			458644.00000
-5.75000			22.72780			460713.00000
-5.75000			23.19232			460812.00000
-5.75000			23.24945			460912.00000
-5.75000			23.16746			461013.00000
-5.75000			23.11687			461112.00000
-5.75000			23.07956			461212.00000
-5.75000			23.04714			461313.00000
-5.75000			23.01849			461412.00000
-5.75000			22.97020			461512.00000
-5.75000			22.94891			461613.00000
0.00244			0.09316			462823.00000
0.00244			-0.26277			462924.00000
0.00244			-0.33677			463025.00000
0.00244			-0.31138			463124.00000
0.00244			-0.28286			463224.00000
0.00244			-0.26154			463325.00000
0.00244			-0.24374			463424.00000
0.00244			-0.21542			463524.00000
0.00244			-0.20438			463625.00000
0.00244			-0.19415			463724.00000
5.50000			-21.84435			464665.00000
5.50000			-22.36557			464765.00000
5.50000			-22.45211			464866.00000
5.50000			-22.39099			464965.00000
5.50000			-22.34438			465066.00000
5.50000			-22.30801			465165.00000
5.50000			-22.27554			465265.00000
5.50000			-22.24774			465366.00000
5.50000			-22.20172			465465.00000
5.50000			-22.18144			465565.00000
-5.50000			21.11408			467591.00000
-5.50000			21.78730			467691.00000
-5.50000			21.96271			467791.00000
-5.50000			21.91398			467892.00000
-5.50000			21.86137			467992.00000
-5.50000			21.82234			468091.00000
-5.50000			21.76101			468192.00000
-5.50000			21.73615			468291.00000
-5.50000			21.71353			468391.00000
-5.50000			21.69131			468492.00000
0.00244			0.16646			469690.00000
0.00244			-0.22535			469790.00000
0.00244			-0.31993			469891.00000
0.00244			-0.29899			469990.00000
0.00244			-0.27087			470090.00000
0.00244			-0.24995			470191.00000
0.00244			-0.21831			470290.00000
0.00244			-0.20700			470390.00000
0.00244			-0.19418			470491.00000
0.00244			-0.18418			470590.00000
5.25000			-19.45971			471513.00000
5.25000			-21.10638			471614.00000
5.25000			-21.15665			471714.00000
5.25000			-21.08811			471815.00000
5.25000			-21.04450			471914.00000
5.25000			-21.01027			472014.00000
5.25000			-20.97993			472115.00000
5.25000			-20.95321			472214.00000
5.25000			-20.90842			472314.00000
5.25000			-20.88942			472415.00000
-5.25000			19.13706			474410.00000
-5.25000			20.65625			474510.00000
-5.25000			20.69408			474610.00000
-5.25000			20.62201			474711.00000
-5.25000			20.57715			474810.00000
-5.25000			20.54201			474910.00000
-5.25000			20.51240			475011.00000
-5.25000			20.48626			475110.00000
-5.25000			20.44195			475210.00000
-5.25000			20.42191			475311.00000
0.00244			0.46903			476490.00000
0.00244			-0.09075			476591.00000
0.00244			-0.28270			476691.00000
0.00244			-0.26124			476791.00000
0.00244			-0.23781			476892.00000
0.00244			-0.21906			476991.00000
0.00244			-0.20469			477091.00000
0.00244			-0.19204			477192.00000
0.00244			-0.18068			477291.00000
0.00244			-0.17186			477391.00000
5.00000			-19.24378			478289.00000
5.00000			-19.81902			478391.00000
5.00000			-19.92459			478490.00000
5.00000			-19.86647			478591.00000
5.00000			-19.82174			478690.00000
5.00000			-19.78813			478790.00000
5.00000			-19.75958			478891.00000
5.00000			-19.71096			478990.00000
5.00000			-19.69088			479090.00000
5.00000			-19.67120			479191.00000
-5.00000			18.39005			481142.00000
-5.00000			19.23016			481243.00000
-5.00000			19.49863			481342.00000
-5.00000			19.47809			481442.00000
-5.00000			19.38693			481543.00000
-5.00000			19.35501			481642.00000
-5.00000			19.32799			481742.00000
-5.00000			19.30504			481843.00000
-5.00000			19.28280			481942.00000
-5.00000			19.26337			482042.00000
0.00244			0.86727			483192.00000
0.00244			-0.23658			483294.00000
0.00244			-0.28253			483393.00000
0.00244			-0.25412			483493.00000
0.00244			-0.22826			483594.00000
0.00244			-0.20951			483693.00000
0.00244			-0.19398			483793.00000
0.00244			-0.18106			483894.00000
0.00244			-0.16924			483993.00000
0.00244			-0.14961			484093.00000
4.75000			-17.95360			484978.00000
4.75000			-18.55086			485080.00000
4.75000			-18.67485			485179.00000
4.75000			-18.61578			485279.00000
4.75000			-18.57004			485380.00000
4.75000			-18.53744			485479.00000
4.75000			-18.48518			485579.00000
4.75000			-18.46334			485680.00000
4.75000			-18.44466			485779.00000
4.75000			-18.42646			485879.00000
-4.75000			17.45402			487814.00000
-4.75000			18.13882			487914.00000
-4.75000			18.32402			488014.00000
-4.75000			18.27294			488115.00000
-4.75000			18.21880			488214.00000
-4.75000			18.15624			488314.00000
-4.75000			18.13161			488415.00000
-4.75000			18.10967			488514.00000
-4.75000			18.08901			488614.00000
-4.75000			18.07121			488715.00000
0.00244			0.64865			489870.00000
0.00244			0.01210			489971.00000
0.00244			-0.25234			490072.00000
0.00244			-0.22854			490171.00000
0.00244			-0.20624			490271.00000
0.00244			-0.18968			490372.00000
0.00244			-0.17477			490471.00000
0.00244			-0.16175			490571.00000
0.00244			-0.15137			490672.00000
0.00244			-0.13496			490771.00000
4.50000			-15.82554			491627.00000
4.50000			-16.97658			491728.00000
4.50000			-17.49451			491829.00000
4.50000			-17.44374			491928.00000
4.50000			-17.40613			492028.00000
4.50000			-17.37552			492129.00000
4.50000			-17.35001			492228.00000
4.50000			-17.32713			492329.00000
4.50000			-17.30705			492428.00000
4.50000			-17.27272			492528.00000
-4.50000			16.24555			494395.00000
-4.50000			16.99033			494496.00000
-4.50000			17.19204			494597.00000
-4.50000			17.15637			494696.00000
-4.50000			17.11221			494796.00000
-4.50000			17.05075			494897.00000
-4.50000			17.02582			494996.00000
-4.50000			17.00398			495096.00000
-4.50000			16.98490			495197.00000
-4.50000			16.96783			495296.00000
0.00244			0.41263			496410.00000
0.00244			-0.10231			496511.00000
0.00244			-0.23919			496610.00000
0.00244			-0.22610			496710.00000
0.00244			-0.20117			496811.00000
0.00244			-0.18307			496910.00000
0.00244			-0.15281			497010.00000
0.00244			-0.14119			497111.00000
0.00244			-0.13225			497210.00000
0.00244			-0.12403			497310.00000
4.25000			-15.60199			498160.00000
4.25000			-16.18718			498262.00000
4.25000			-16.31570			498361.00000
4.25000			-16.26850			498461.00000
4.25000			-16.22790			498562.00000
4.25000			-16.19699			498661.00000
4.25000			-16.14931			498761.00000
4.25000			-16.12912			498862.00000
4.25000			-16.11304			498961.00000
4.25000			-16.09720			499061.00000
-4.25000			15.11561			500910.00000
-4.25000			15.83967			501011.00000
-4.25000			16.06265			501111.00000
-4.25000			16.02731			501212.00000
-4.25000			15.94225			501311.00000
-4.25000			15.91593			501411.00000
-4.25000			15.89261			501512.00000
-4.25000			15.87225			501611.00000
-4.25000			15.85347			501711.00000
-4.25000			15.83633			501812.00000
0.00244			0.41447			502925.00000
0.00244			-0.06476			503025.00000
0.00244			-0.21014			503126.00000
0.00244			-0.20893			503225.00000
0.00244			-0.18573			503325.00000
0.00244			-0.15027			503426.00000
0.00244			-0.13946			503525.00000
0.00244			-0.12890			503625.00000
0.00244			-0.12008			503726.00000
0.00244			-0.11174			503825.00000
4.00000			-13.38365			504644.00000
4.00000			-15.10138			504746.00000
4.00000			-15.20438			504845.00000
4.00000			-15.16216			504945.00000
4.00000			-15.12548			505046.00000
4.00000			-15.09716			505145.00000
4.00000			-15.07365			505245.00000
4.00000			-15.05216			505346.00000
4.00000			-15.01758			505445.00000
4.00000			-15.00355			505545.00000
-4.00000			13.81824			507333.00000
-4.00000			14.67678			507434.00000
-4.00000			14.98003			507533.00000
-4.00000			14.93735			507633.00000
-4.00000			14.90561			507734.00000
-4.00000			14.87942			507833.00000
-4.00000			14.85634			507933.00000
-4.00000			14.83666			508034.00000
-4.00000			14.81959			508133.00000
-4.00000			14.80321			508233.00000
0.00244			0.35761			509323.00000
0.00244			-0.07898			509424.00000
0.00244			-0.19413			509525.00000
0.00244			-0.18387			509624.00000
0.00244			-0.16087			509724.00000
0.00244			-0.14248			509825.00000
0.00244			-0.11711			509924.00000
0.00244			-0.10721			510024.00000
0.00244			-0.09728			510125.00000
0.00244			-0.08881			510224.00000
3.75000			-12.89191			511031.00000
3.75000			-13.75686			511132.00000
3.75000			-14.05993			511233.00000
3.75000			-14.01135			511332.00000
3.75000			-13.98164			511432.00000
3.75000			-13.95824			511533.00000
3.75000			-13.93677			511632.00000
3.75000			-13.91727			511732.00000
3.75000			-13.90088			511833.00000
3.75000			-13.88693			511932.00000
-3.75000			12.65919			513683.00000
-3.75000			13.56277			513783.00000
-3.75000			13.92610			513884.00000
-3.75000			13.87100			513983.00000
-3.75000			13.83978			514083.00000
-3.75000			13.81357			514184.00000
-3.75000			13.79062			514283.00000
-3.75000			13.77302			514383.00000
-3.75000			13.75583			514484.00000
-3.75000			13.72637			514583.00000
0.00244			0.39441			515642.00000
0.00244			-0.06033			515742.00000
0.00244			-0.17379			515843.00000
0.00244			-0.15947			515942.00000
0.00244			-0.13692			516042.00000
0.00244			-0.11988			516143.00000
0.00244			-0.10721			516242.00000
0.00244			-0.08645			516342.00000
0.00244			-0.07851			516443.00000
0.00244			-0.07260			516542.00000
3.50000			-12.20532			517324.00000
3.50000			-12.84782			517426.00000
3.50000			-13.01595			517525.00000
3.50000			-12.98770			517625.00000
3.50000			-12.95108			517726.00000
3.50000			-12.90362			517825.00000
3.50000			-12.88316			517925.00000
3.50000			-12.86602			518026.00000
3.50000			-12.85222			518125.00000
3.50000			-12.83950			518225.00000
-3.50000			12.32882			519941.00000
-3.50000			12.81362			520041.00000
-3.50000			12.90765			520141.00000
-3.50000			12.86957			520242.00000
-3.50000			12.83644			520341.00000
-3.50000			12.81093			520441.00000
-3.50000			12.79040			520542.00000
-3.50000			12.75413			520641.00000
-3.50000			12.73894			520741.00000
-3.50000			12.72452			520842.00000
0.00244			0.39066			521876.00000
0.00244			-0.05209			521976.00000
0.00244			-0.15726			522077.00000
0.00244			-0.14177			522176.00000
0.00244			-0.12109			522276.00000
0.00244			-0.10570			522377.00000
0.00244			-0.09339			522476.00000
0.00244			-0.07381			522576.00000
0.00244			-0.06579			522677.00000
0.00244			-0.05923			522776.00000
3.25000			-10.29705			523535.00000
3.25000			-11.88646			523635.00000
3.25000			-11.95214			523736.00000
3.25000			-11.90315			523835.00000
3.25000			-11.87382			523935.00000
3.25000			-11.85115			524036.00000
3.25000			-11.83076			524135.00000
3.25000			-11.81254			524235.00000
3.25000			-11.78413			524336.00000
3.25000			-11.77220			524435.00000
-3.25000			11.20242			526101.00000
-3.25000			11.77650			526202.00000
-3.25000			11.91230			526303.00000
-3.25000			11.87583			526402.00000
-3.25000			11.84240			526502.00000
-3.25000			11.81795			526603.00000
-3.25000			11.77974			526702.00000
-3.25000			11.76376			526802.00000
-3.25000			11.74976			526903.00000
-3.25000			11.73694			527002.00000
0.00244			0.38078			528024.00000
0.00244			-0.03251			528125.00000
0.00244			-0.13086			528226.00000
0.00244			-0.11696			528325.00000
0.00244			-0.09786			528426.00000
0.00244			-0.08250			528525.00000
0.00244			-0.07139			528625.00000
0.00244			-0.05257			528726.00000
0.00244			-0.04631			528825.00000
0.00244			-0.04050			528925.00000
3.00000			-9.64613			529652.00000
3.00000			-10.57172			529753.00000
3.00000			-10.90954			529853.00000
3.00000			-10.88584			529953.00000
3.00000			-10.86128			530054.00000
3.00000			-10.84049			530153.00000
3.00000			-10.82360			530253.00000
3.00000			-10.80784			530354.00000
3.00000			-10.79392			530453.00000
3.00000			-10.78238			530553.00000
-3.00000			10.26506			532152.00000
-3.00000			10.80787			532253.00000
-3.00000			10.91613			532354.00000
-3.00000			10.88134			532453.00000
-3.00000			10.85211			532553.00000
-3.00000			10.82810			532654.00000
-3.00000			10.80905			532753.00000
-3.00000			10.77736			532853.00000
-3.00000			10.76416			532954.00000
-3.00000			10.75192			533053.00000
0.00244			0.89060			534044.00000
0.00244			0.17541			534146.00000
0.00244			-0.08127			534245.00000
0.00244			-0.08839			534345.00000
0.00244			-0.07278			534446.00000
0.00244			-0.06179			534545.00000
0.00244			-0.05041			534645.00000
0.00244			-0.04108			534746.00000
0.00244			-0.03500			534845.00000
0.00244			-0.02831			534945.00000
2.75000			-8.33209			535649.00000
2.75000			-9.85653			535749.00000
2.75000			-9.91515			535850.00000
2.75000			-9.87314			535949.00000
2.75000			-9.84766			536049.00000
2.75000			-9.82815			536150.00000
2.75000			-9.81081			536249.00000
2.75000			-9.79623			536349.00000
2.75000			-9.78238			536450.00000
2.75000			-9.75705			536549.00000
-2.75000			8.60247			538104.00000
-2.75000			9.54378			538206.00000
-2.75000			9.96238			538305.00000
-2.75000			9.92327			538405.00000
-2.75000			9.89879			538506.00000
-2.75000			9.87878			538605.00000
-2.75000			9.86139			538705.00000
-2.75000			9.84593			538806.00000
-2.75000			9.83321			538905.00000
-2.75000			9.80878			539005.00000
0.00244			0.48814			539979.00000
0.00244			0.03337			540080.00000
0.00244			-0.07981			540179.00000
0.00244			-0.06961			540279.00000
0.00244			-0.05242			540380.00000
0.00244			-0.03977			540479.00000
0.00244			-0.02975			540579.00000
0.00244			-0.01356			540680.00000
0.00244			-0.00778			540779.00000
0.00244			-0.00237			540879.00000
2.50000			-8.18468			541571.00000
2.50000			-8.78334			541671.00000
2.50000			-8.93229			541772.00000
2.50000			-8.90437			541873.00000
2.50000			-8.87546			541972.00000
2.50000			-8.85558			542072.00000
2.50000			-8.82517			542173.00000
2.50000			-8.81343			542272.00000
2.50000			-8.80217			542372.00000
2.50000			-8.79128			542473.00000
-2.50000			7.75683			543991.00000
-2.50000			8.64397			544092.00000
-2.50000			9.02014			544191.00000
-2.50000			8.98727			544291.00000
-2.50000			8.96372			544392.00000
-2.50000			8.94471			544491.00000
-2.50000			8.92920			544591.00000
-2.50000			8.91513			544692.00000
-2.50000			8.90203			544791.00000
-2.50000			8.88052			544891.00000
0.00244			1.16610			545828.00000
0.00244			0.31619			545929.00000
0.00244			-0.01542			546028.00000
0.00244			-0.04716			546128.00000
0.00244			-0.03284			546229.00000
0.00244			-0.02248			546328.00000
0.00244			-0.01421			546427.00000
0.00244			-0.00758			546529.00000
0.00244			0.00034			546628.00000
0.00244			0.00673			546729.00000
2.25000			-6.98853			547376.00000
2.25000			-7.73240			547477.00000
2.25000			-7.95069			547577.00000
2.25000			-7.93179			547678.00000
2.25000			-7.90181			547777.00000
2.25000			-7.86752			547877.00000
2.25000			-7.85450			547978.00000
2.25000			-7.84289			548077.00000
2.25000			-7.83183			548177.00000
2.25000			-7.82233			548278.00000
-2.25000			6.45539			549718.00000
-2.25000			8.00605			549818.00000
-2.25000			8.08741			549918.00000
-2.25000			8.05121			550019.00000
-2.25000			8.02610			550118.00000
-2.25000			8.00836			550218.00000
-2.25000			7.99325			550319.00000
-2.25000			7.98058			550418.00000
-2.25000			7.95839			550518.00000
-2.25000			7.94962			550619.00000
0.00244			1.06928			551525.00000
0.00244			0.27497			551625.00000
0.00244			-0.01253			551726.00000
0.00244			-0.04357			551825.00000
0.00244			-0.01358			551925.00000
0.00244			-0.00278			552026.00000
0.00244			0.00544			552125.00000
0.00244			0.01223			552225.00000
0.00244			0.01706			552326.00000
0.00244			0.02128			552425.00000
2.00000			-5.36500			553056.00000
2.00000			-6.92632			553156.00000
2.00000			-7.01157			553257.00000
2.00000			-6.98164			553356.00000
2.00000			-6.95979			553456.00000
2.00000			-6.94391			553557.00000
2.00000			-6.93044			553656.00000
2.00000			-6.91893			553756.00000
2.00000			-6.90068			553857.00000
2.00000			-6.89231			553956.00000
-2.00000			6.46449			555360.00000
-2.00000			7.03928			555461.00000
-2.00000			7.18147			555562.00000
-2.00000			7.16415			555661.00000
-2.00000			7.14123			555761.00000
-2.00000			7.12443			555862.00000
-2.00000			7.09744			555961.00000
-2.00000			7.08696			556061.00000
-2.00000			7.07680			556162.00000
-2.00000			7.06750			556261.00000
0.00244			1.02555			557143.00000
0.00244			0.27077			557244.00000
0.00244			0.00580			557344.00000
0.00244			-0.01863			557445.00000
0.00244			0.01067			557544.00000
0.00244			0.01806			557644.00000
0.00244			0.02490			557745.00000
0.00244			0.03118			557844.00000
0.00244			0.03520			557944.00000
0.00244			0.04013			558045.00000
1.75000			-4.90534			558638.00000
1.75000			-5.75233			558739.00000
1.75000			-6.04624			558839.00000
1.75000			-6.04822			558940.00000
1.75000			-6.00203			559039.00000
1.75000			-5.98923			559139.00000
1.75000			-5.97827			559240.00000
1.75000			-5.96744			559339.00000
1.75000			-5.95887			559439.00000
1.75000			-5.95057			559540.00000
-1.75000			4.65919			560869.00000
-1.75000			6.19959			560970.00000
-1.75000			6.27965			561071.00000
-1.75000			6.24866			561170.00000
-1.75000			6.22925			561270.00000
-1.75000			6.21560			561371.00000
-1.75000			6.20346			561470.00000
-1.75000			6.19240			561570.00000
-1.75000			6.17194			561671.00000
-1.75000			6.16624			561770.00000
0.00244			1.54356			562627.00000
0.00244			0.09792			562727.00000
0.00244			0.00268			562828.00000
0.00244			0.01110			562928.00000
0.00244			0.02344			563029.00000
0.00244			0.03186			563128.00000
0.00244			0.03887			563228.00000
0.00244			0.04498			563329.00000
0.00244			0.05546			563428.00000
0.00244			0.05845			563528.00000
1.50000			-3.93223			564091.00000
1.50000			-4.80987			564192.00000
1.50000			-5.12655			564291.00000
1.50000			-5.11979			564391.00000
1.50000			-5.10458			564491.00000
1.50000			-5.09352			564591.00000
1.50000			-5.08349			564692.00000
1.50000			-5.07479			564791.00000
1.50000			-5.06690			564891.00000
1.50000			-5.05997			564992.00000
-1.50000			4.54478			566259.00000
-1.50000			5.20975			566361.00000
-1.50000			5.39283			566460.00000
-1.50000			5.38494			566560.00000
-1.50000			5.36549			566661.00000
-1.50000			5.35033			566760.00000
-1.50000			5.32892			566860.00000
-1.50000			5.31954			566961.00000
-1.50000			5.31162			567060.00000
-1.50000			5.30501			567160.00000
0.00244			1.58626			567982.00000
0.00244			0.11242			568082.00000
0.00244			0.02593			568182.00000
0.00244			0.03576			568283.00000
0.00244			0.04634			568382.00000
0.00244			0.05345			568482.00000
0.00244			0.05835			568583.00000
0.00244			0.06288			568682.00000
0.00244			0.07273			568782.00000
0.00244			0.07562			568883.00000
1.25000			-3.48913			569414.00000
1.25000			-4.09775			569516.00000
1.25000			-4.24240			569615.00000
1.25000			-4.21827			569715.00000
1.25000			-4.20020			569816.00000
1.25000			-4.18818			569915.00000
1.25000			-4.16996			570015.00000
1.25000			-4.16259			570116.00000
1.25000			-4.15616			570215.00000
1.25000			-4.15093			570315.00000
-1.25000			3.76441			571524.00000
-1.25000			4.37092			571625.00000
-1.25000			4.52301			571725.00000
-1.25000			4.50856			571826.00000
-1.25000			4.48983			571925.00000
-1.25000			4.47694			572025.00000
-1.25000			4.46047			572126.00000
-1.25000			4.45243			572225.00000
-1.25000			4.44572			572325.00000
-1.25000			4.43939			572426.00000
0.00244			1.08726			573215.00000
0.00244			0.32742			573316.00000
0.00244			0.07665			573415.00000
0.00244			0.05262			573515.00000
0.00244			0.07140			573616.00000
0.00244			0.07831			573715.00000
0.00244			0.08336			573815.00000
0.00244			0.08751			573916.00000
0.00244			0.09083			574015.00000
0.00244			0.09312			574115.00000
1.00000			-2.46498			574612.00000
1.00000			-3.15963			574712.00000
1.00000			-3.35337			574813.00000
1.00000			-3.34664			574912.00000
1.00000			-3.32927			575012.00000
1.00000			-3.31079			575113.00000
1.00000			-3.30408			575212.00000
1.00000			-3.29886			575312.00000
1.00000			-3.29325			575413.00000
1.00000			-3.28757			575512.00000
-1.00000			2.66287			576635.00000
-1.00000			3.40518			576737.00000
-1.00000			3.63378			576836.00000
-1.00000			3.63828			576937.00000
-1.00000			3.62177			577036.00000
-1.00000			3.60216			577136.00000
-1.00000			3.59334			577237.00000
-1.00000			3.58801			577336.00000
-1.00000			3.58263			577436.00000
-1.00000			3.57733			577537.00000
0.00244			0.85554			578283.00000
0.00244			0.24096			578384.00000
0.00244			0.08233			578485.00000
0.00244			0.07944			578584.00000
0.00244			0.09045			578684.00000
0.00244			0.09676			578785.00000
0.00244			0.10063			578884.00000
0.00244			0.10757			578985.00000
0.00244			0.11078			579084.00000
0.00244			0.11330			579184.00000
0.75000			-1.36401			579631.00000
0.75000			-2.18919			579732.00000
0.75000			-2.46503			579832.00000
0.75000			-2.46583			579933.00000
0.75000			-2.43660			580032.00000
0.75000			-2.43117			580132.00000
0.75000			-2.42589			580233.00000
0.75000			-2.42019			580332.00000
0.75000			-2.41594			580432.00000
0.75000			-2.41214			580533.00000
-0.75000			1.67484			581558.00000
-0.75000			2.48278			581658.00000
-0.75000			2.75891			581759.00000
-0.75000			2.76725			581858.00000
-0.75000			2.75170			581958.00000
-0.75000			2.73677			582059.00000
-0.75000			2.73071			582158.00000
-0.75000			2.72639			582258.00000
-0.75000			2.72153			582359.00000
-0.75000			2.71628			582458.00000
0.00244			1.51505			583157.00000
0.00244			0.55947			583258.00000
0.00244			0.16452			583357.00000
0.00244			0.11171			583457.00000
0.00244			0.11659			583557.00000
0.00244			0.12298			583657.00000
0.00244			0.12748			583757.00000
0.00244			0.12954			583858.00000
0.00244			0.13243			583957.00000
0.00244			0.13444			584057.00000
0.50000			-0.64153			584451.00000
0.50000			-1.34973			584551.00000
0.50000			-1.59257			584651.00000
0.50000			-1.59689			584752.00000
0.50000			-1.58465			584851.00000
0.50000			-1.57397			584951.00000
0.50000			-1.56869			585052.00000
0.50000			-1.56504			585151.00000
0.50000			-1.56286			585251.00000
0.50000			-1.56064			585352.00000
-0.50000			1.15308			586272.00000
-0.50000			1.75265			586374.00000
-0.50000			1.90268			586473.00000
-0.50000			1.89537			586573.00000
-0.50000			1.88718			586674.00000
-0.50000			1.88132			586773.00000
-0.50000			1.87634			586873.00000
-0.50000			1.86893			586974.00000
-0.50000			1.86448			587073.00000
-0.50000			1.86136			587173.00000
0.00244			1.44882			587811.00000
0.00244			0.66448			587913.00000
0.00244			0.21414			588012.00000
0.00244			0.14399			588112.00000
0.00244			0.14733			588213.00000
0.00244			0.15165			588312.00000
0.00244			0.15522			588412.00000
0.00244			0.15610			588513.00000
0.00244			0.15721			588612.00000
0.00244			0.15892			588713.00000
0.25000			0.05860			589036.00000
0.25000			-0.36143			589137.00000
0.25000			-0.68132			589238.00000
0.25000			-0.71183			589337.00000
0.25000			-0.69504			589437.00000
0.25000			-0.69032			589538.00000
0.25000			-0.68866			589637.00000
0.25000			-0.68645			589738.00000
0.25000			-0.68386			589837.00000
0.25000			-0.68250			589937.00000
-0.25000			0.13177			590725.00000
-0.25000			0.53019			590826.00000
-0.25000			1.00381			590925.00000
-0.25000			0.99043			591027.00000
-0.25000			0.98531			591126.00000
-0.25000			0.98247			591226.00000
-0.25000			0.98020			591327.00000
-0.25000			0.97817			591426.00000
-0.25000			0.97593			591526.00000
-0.25000			0.97377			591627.00000
0.00244			0.89990			592202.00000
0.00244			0.57797			592304.00000
0.00244			0.24609			592403.00000
0.00244			0.17868			592503.00000
0.00244			0.18136			592604.00000
0.00244			0.18184			592703.00000
0.00244			0.18312			592803.00000
0.00244			0.18310			592904.00000
0.00244			0.18400			593003.00000
0.00244			0.18513			593103.00000
