# Acquired on 25/08/2024 18:11:37 
# SPIDER: TrackingProva1_2024-07-29
# TRACKING CURVE AT ISTANT 100.0 ms

  # x_forw [mm]    f_forw [N]    kms_forw [N/mm]
      -10.99365      29.65097            2.69710
      -10.49316      27.43066            2.61415
       -9.99268      24.94933            2.49676
       -9.49463      24.03632            2.53157
       -8.99414      22.08257            2.45522
       -8.49365      20.66623            2.43314
       -7.99316      17.72599            2.21764
       -7.49512      17.09996            2.28148
       -6.99463      16.31800            2.33293
       -6.49170      14.18039            2.18439
       -5.99365      13.29626            2.21839
       -5.49316      12.04653            2.19301
       -4.99512      11.17120            2.23642
       -4.49463       9.65729            2.14863
       -3.99170       7.92582            1.98558
       -3.49121       7.20138            2.06272
       -2.99072       5.98974            2.00278
       -2.49268       4.97391            1.99541
       -1.99463       3.19481            1.60171
       -1.49414       1.83748            1.22979
       -0.99365       1.46035            1.46968
       -0.49072       0.54799            1.11671
        0.49561      -0.14391            0.29037
        0.99365      -1.25143            1.25943
        1.49414      -1.96571            1.31561
        1.99463      -3.34682            1.67792
        2.49512      -3.39742            1.36163
        2.99316      -5.64464            1.88585
        3.49365      -6.73527            1.92786
        3.99414      -8.15201            2.04099
        4.49219      -9.43613            2.10056
        4.99512     -10.41171            2.08438
        5.49316     -10.87632            1.97998
        5.99365     -12.62467            2.10634
        6.49414     -14.42457            2.22117
        6.99463     -15.76864            2.25439
        7.49512     -15.80827            2.10914
        7.99316     -17.06932            2.13549
        8.49365     -18.92441            2.22807
        8.99170     -20.90879            2.32534
        9.49463     -21.38008            2.25181
        9.99268     -24.37346            2.43913
       10.49316     -25.79374            2.45815
       10.99121     -26.90769            2.44811
