# Acquired on 25/08/2024 18:13:59 
# SPIDER: TrackingProva1_2024-07-29
# TRACKING CURVE AT ISTANT 400.0 ms

  # x_forw [mm]    f_forw [N]    kms_forw [N/mm]
      -10.99365      31.44712            2.86048
      -10.49316      29.06644            2.77004
       -9.99268      26.96613            2.69859
       -9.49463      25.02981            2.63621
       -8.99414      23.21227            2.58082
       -8.49365      21.49914            2.53120
       -7.99316      19.89989            2.48961
       -7.49512      18.37474            2.45156
       -6.99463      16.94609            2.42273
       -6.49170      15.54745            2.39497
       -5.99365      14.25511            2.37837
       -5.49316      12.95805            2.35894
       -4.99512      11.68811            2.33991
       -4.49463      10.45603            2.32634
       -3.99170       9.22434            2.31088
       -3.49121       8.06068            2.30885
       -2.99072       6.89321            2.30487
       -2.49268       5.74155            2.30336
       -1.99463       4.58983            2.30109
       -1.49414       3.48072            2.32958
       -0.99365       2.39159            2.40687
       -0.49072       1.27667            2.60163
        0.49561      -1.08933            2.19796
        0.99365      -2.14825            2.16198
        1.49414      -3.22290            2.15703
        1.99463      -4.29914            2.15536
        2.49512      -5.39439            2.16198
        2.99316      -6.52801            2.18098
        3.49365      -7.69175            2.20164
        3.99414      -8.86913            2.22054
        4.49219     -10.06078            2.23962
        4.99512     -11.27669            2.25754
        5.49316     -12.49216            2.27413
        5.99365     -13.73622            2.29180
        6.49414     -15.03482            2.31514
        6.99463     -16.33712            2.33567
        7.49512     -17.67287            2.35792
        7.99316     -19.06054            2.38461
        8.49365     -20.49214            2.41264
        8.99170     -22.04595            2.45181
        9.49463     -23.60963            2.48663
        9.99268     -25.30106            2.53196
       10.49316     -27.09071            2.58175
       10.99121     -28.93840            2.63287
