# Acquired on 04/09/2024 11:31:33 
# SPIDER: CNT0771454D-2_PostRodaggio_2024-09-04
# TRACKING MEASUREMENT

  # pos [mm]    force [N]     time [ms]
     0.49316     -0.09716     248.00000
     0.49316     -0.36753     350.00000
     0.49316     -0.52681     449.00000
     0.49316     -0.51136     549.00000
     0.49316     -0.50396     650.00000
     0.49316     -0.49761     749.00000
     0.49316     -0.49307     849.00000
     0.49316     -0.48956     950.00000
     0.49316     -0.48553    1049.00000
     0.49316     -0.48269    1150.00000
    -0.49072      0.65638    1961.00000
    -0.49072      0.98437    2062.00000
    -0.49072      1.09041    2162.00000
    -0.49072      1.07968    2263.00000
    -0.49072      1.06837    2362.00000
    -0.49072      1.06088    2462.00000
    -0.49072      1.05059    2563.00000
    -0.49072      1.04597    2662.00000
    -0.49072      1.04227    2762.00000
    -0.49072      1.03948    2863.00000
    -0.00488      0.72478    3457.00000
    -0.00488      0.26760    3558.00000
    -0.00488      0.10735    3658.00000
    -0.00488      0.10567    3759.00000
    -0.00488      0.11283    3858.00000
    -0.00488      0.11797    3958.00000
    -0.00488      0.12299    4059.00000
    -0.00488      0.12472    4158.00000
    -0.00488      0.12701    4258.00000
    -0.00488      0.12966    4359.00000
     0.99365     -0.68723    4762.00000
     0.99365     -0.96146    4863.00000
     0.99365     -0.99212    4962.00000
     0.99365     -0.97073    5062.00000
     0.99365     -0.95687    5163.00000
     0.99365     -0.94644    5262.00000
     0.99365     -0.93858    5362.00000
     0.99365     -0.93204    5463.00000
     0.99365     -0.92372    5562.00000
     0.99365     -0.91778    5662.00000
    -0.99365      1.37939    6615.00000
    -0.99365      1.76098    6716.00000
    -0.99365      1.83312    6816.00000
    -0.99365      1.81310    6917.00000
    -0.99365      1.79727    7016.00000
    -0.99365      1.78592    7116.00000
    -0.99365      1.77692    7217.00000
    -0.99365      1.76277    7316.00000
    -0.99365      1.75782    7416.00000
    -0.99365      1.75388    7517.00000
    -0.00488      1.21133    8184.00000
    -0.00488      0.10505    8285.00000
    -0.00488      0.06012    8384.00000
    -0.00488      0.07269    8484.00000
    -0.00488      0.08279    8585.00000
    -0.00488      0.09000    8684.00000
    -0.00488      0.09543    8784.00000
    -0.00488      0.09884    8885.00000
    -0.00488      0.10597    8984.00000
    -0.00488      0.10921    9084.00000
     1.49414     -0.99704    9544.00000
     1.49414     -1.38936    9645.00000
     1.49414     -1.48110    9744.00000
     1.49414     -1.46151    9844.00000
     1.49414     -1.44285    9945.00000
     1.49414     -1.41726   10044.00000
     1.49414     -1.40859   10144.00000
     1.49414     -1.40016   10245.00000
     1.49414     -1.39384   10344.00000
     1.49414     -1.38879   10444.00000
    -1.49414      1.80126   11494.00000
    -1.49414      2.38299   11595.00000
    -1.49414      2.56885   11696.00000
    -1.49414      2.55921   11795.00000
    -1.49414      2.52017   11895.00000
    -1.49414      2.50607   11996.00000
    -1.49414      2.49426   12095.00000
    -1.49414      2.48640   12194.00000
    -1.49414      2.47873   12296.00000
    -1.49414      2.47184   12395.00000
    -0.00488      1.21130   13112.00000
    -0.00488      0.06412   13213.00000
    -0.00488      0.02790   13314.00000
    -0.00488      0.04548   13413.00000
    -0.00488      0.05745   13513.00000
    -0.00488      0.06561   13614.00000
    -0.00488      0.07198   13713.00000
    -0.00488      0.07739   13813.00000
    -0.00488      0.08614   13914.00000
    -0.00488      0.09008   14013.00000
     1.99463     -1.18455   14515.00000
     1.99463     -1.99531   14616.00000
     1.99463     -2.00690   14716.00000
     1.99463     -1.97894   14817.00000
     1.99463     -1.96168   14916.00000
     1.99463     -1.94839   15017.00000
     1.99463     -1.93580   15116.00000
     1.99463     -1.92653   15216.00000
     1.99463     -1.91824   15317.00000
     1.99463     -1.90332   15416.00000
    -1.99463      2.88423   16557.00000
    -1.99463      3.29683   16658.00000
    -1.99463      3.35421   16758.00000
    -1.99463      3.32304   16859.00000
    -1.99463      3.29986   16958.00000
    -1.99463      3.28165   17058.00000
    -1.99463      3.26787   17159.00000
    -1.99463      3.24607   17258.00000
    -1.99463      3.23640   17358.00000
    -1.99463      3.22770   17459.00000
    -0.00488      0.30915   18224.00000
    -0.00488      0.03168   18325.00000
    -0.00488     -0.00236   18425.00000
    -0.00488      0.01704   18526.00000
    -0.00488      0.03138   18625.00000
    -0.00488      0.04165   18725.00000
    -0.00488      0.05043   18826.00000
    -0.00488      0.05688   18925.00000
    -0.00488      0.06720   19025.00000
    -0.00488      0.07166   19125.00000
     2.49268     -2.07050   19657.00000
     2.49268     -2.51657   19758.00000
     2.49268     -2.61556   19857.00000
     2.49268     -2.58800   19957.00000
     2.49268     -2.56274   20058.00000
     2.49268     -2.54491   20157.00000
     2.49268     -2.51663   20257.00000
     2.49268     -2.50558   20358.00000
     2.49268     -2.49604   20457.00000
     2.49268     -2.48831   20557.00000
    -2.49268      3.49469   21766.00000
    -2.49268      4.06480   21866.00000
    -2.49268      4.18532   21966.00000
    -2.49268      4.15111   22067.00000
    -2.49268      4.12053   22166.00000
    -2.49268      4.09805   22266.00000
    -2.49268      4.06477   22367.00000
    -2.49268      4.05226   22466.00000
    -2.49268      4.04119   22566.00000
    -2.49268      4.02960   22667.00000
    -0.00488      0.61645   23462.00000
    -0.00488      0.10856   23564.00000
    -0.00488     -0.02997   23663.00000
    -0.00488     -0.02054   23764.00000
    -0.00488      0.01361   23863.00000
    -0.00488      0.02301   23963.00000
    -0.00488      0.03103   24064.00000
    -0.00488      0.03957   24163.00000
    -0.00488      0.04581   24262.00000
    -0.00488      0.05043   24364.00000
     2.99316     -2.74555   24938.00000
     2.99316     -3.19260   25038.00000
     2.99316     -3.27832   25139.00000
     2.99316     -3.24342   25238.00000
     2.99316     -3.21368   25338.00000
     2.99316     -3.17753   25439.00000
     2.99316     -3.16337   25538.00000
     2.99316     -3.15130   25638.00000
     2.99316     -3.13914   25739.00000
     2.99316     -3.12990   25838.00000
    -2.99072      4.41424   27132.00000
    -2.99072      4.93518   27233.00000
    -2.99072      5.02279   27332.00000
    -2.99072      4.98219   27433.00000
    -2.99072      4.94936   27532.00000
    -2.99072      4.92500   27632.00000
    -2.99072      4.88553   27733.00000
    -2.99072      4.87075   27832.00000
    -2.99072      4.85835   27932.00000
    -2.99072      4.84554   28033.00000
    -0.00488      0.18912   28870.00000
    -0.00488     -0.03878   28972.00000
    -0.00488     -0.05839   29071.00000
    -0.00488     -0.03373   29171.00000
    -0.00488     -0.01682   29272.00000
    -0.00488     -0.00328   29371.00000
    -0.00488      0.00739   29471.00000
    -0.00488      0.01560   29572.00000
    -0.00488      0.02806   29671.00000
    -0.00488      0.03314   29771.00000
     3.49365     -3.55334   30383.00000
     3.49365     -3.94744   30483.00000
     3.49365     -3.99950   30584.00000
     3.49365     -3.95898   30685.00000
     3.49365     -3.92837   30784.00000
     3.49365     -3.90524   30884.00000
     3.49365     -3.87161   30985.00000
     3.49365     -3.85756   31084.00000
     3.49365     -3.84521   31184.00000
     3.49365     -3.83360   31285.00000
    -3.49121      4.60713   32651.00000
    -3.49121      5.87075   32752.00000
    -3.49121      5.88463   32853.00000
    -3.49121      5.83736   32952.00000
    -3.49121      5.80278   33052.00000
    -3.49121      5.77779   33153.00000
    -3.49121      5.75431   33252.00000
    -3.49121      5.73410   33352.00000
    -3.49121      5.70379   33453.00000
    -3.49121      5.68975   33552.00000
    -0.00488      0.18550   34434.00000
    -0.00488     -0.06001   34535.00000
    -0.00488     -0.09178   34635.00000
    -0.00488     -0.06666   34736.00000
    -0.00488     -0.04502   34835.00000
    -0.00488     -0.03002   34935.00000
    -0.00488     -0.00830   35036.00000
    -0.00488     -0.00066   35135.00000
    -0.00488      0.00577   35235.00000
    -0.00488      0.01139   35336.00000
     3.99414     -3.84303   35972.00000
     3.99414     -4.55034   36072.00000
     3.99414     -4.77335   36172.00000
     3.99414     -4.71276   36273.00000
     3.99414     -4.68334   36372.00000
     3.99414     -4.65919   36472.00000
     3.99414     -4.63849   36573.00000
     3.99414     -4.62201   36672.00000
     3.99414     -4.60745   36772.00000
     3.99414     -4.59346   36873.00000
    -3.99414      6.35006   38288.00000
    -3.99414      6.75631   38389.00000
    -3.99414      6.78317   38490.00000
    -3.99414      6.72905   38589.00000
    -3.99414      6.68948   38689.00000
    -3.99414      6.65981   38790.00000
    -3.99414      6.63461   38889.00000
    -3.99414      6.59268   38989.00000
    -3.99414      6.57585   39090.00000
    -3.99414      6.56107   39189.00000
    -0.00488      0.32647   40089.00000
    -0.00488     -0.03524   40191.00000
    -0.00488     -0.11972   40290.00000
    -0.00488     -0.10072   40390.00000
    -0.00488     -0.05769   40490.00000
    -0.00488     -0.04324   40590.00000
    -0.00488     -0.03181   40690.00000
    -0.00488     -0.02265   40791.00000
    -0.00488     -0.01449   40890.00000
    -0.00488     -0.00798   40990.00000
     4.49463     -4.98769   41669.00000
     4.49463     -5.49561   41771.00000
     4.49463     -5.59813   41870.00000
     4.49463     -5.55674   41970.00000
     4.49463     -5.48529   42071.00000
     4.49463     -5.46038   42170.00000
     4.49463     -5.43950   42270.00000
     4.49463     -5.42059   42371.00000
     4.49463     -5.40492   42470.00000
     4.49463     -5.38974   42570.00000
    -4.49463      6.95428   44053.00000
    -4.49463      7.57658   44154.00000
    -4.49463      7.71290   44255.00000
    -4.49463      7.66708   44354.00000
    -4.49463      7.57977   44454.00000
    -4.49463      7.54897   44555.00000
    -4.49463      7.52379   44654.00000
    -4.49463      7.50134   44755.00000
    -4.49463      7.48100   44854.00000
    -4.49463      7.46341   44954.00000
    -0.00488      0.19720   45879.00000
    -0.00488     -0.09764   45980.00000
    -0.00488     -0.14730   46081.00000
    -0.00488     -0.11950   46180.00000
    -0.00488     -0.09508   46280.00000
    -0.00488     -0.06166   46381.00000
    -0.00488     -0.05031   46480.00000
    -0.00488     -0.04072   46580.00000
    -0.00488     -0.03211   46681.00000
    -0.00488     -0.02430   46780.00000
     4.99512     -5.73723   47483.00000
     4.99512     -6.32725   47585.00000
     4.99512     -6.45763   47684.00000
     4.99512     -6.41270   47785.00000
     4.99512     -6.33160   47884.00000
     4.99512     -6.30331   47984.00000
     4.99512     -6.28059   48085.00000
     4.99512     -6.25914   48184.00000
     4.99512     -6.24047   48284.00000
     4.99512     -6.22435   48385.00000
    -4.99268      8.23954   49909.00000
    -4.99268      8.62704   50011.00000
    -4.99268      8.64250   50110.00000
    -4.99268      8.57733   50210.00000
    -4.99268      8.52868   50311.00000
    -4.99268      8.49156   50410.00000
    -4.99268      8.46085   50510.00000
    -4.99268      8.41154   50611.00000
    -4.99268      8.39077   50710.00000
    -4.99268      8.37132   50810.00000
    -0.00488      0.08619   51754.00000
    -0.00488     -0.15057   51854.00000
    -0.00488     -0.17342   51954.00000
    -0.00488     -0.14017   52055.00000
    -0.00488     -0.11507   52154.00000
    -0.00488     -0.09656   52254.00000
    -0.00488     -0.08114   52355.00000
    -0.00488     -0.05901   52453.00000
    -0.00488     -0.04994   52554.00000
    -0.00488     -0.04218   52655.00000
     5.49316     -6.60435   53369.00000
     5.49316     -7.21530   53470.00000
     5.49316     -7.34308   53569.00000
     5.49316     -7.28929   53669.00000
     5.49316     -7.23707   53770.00000
     5.49316     -7.17053   53869.00000
     5.49316     -7.14422   53969.00000
     5.49316     -7.12120   54070.00000
     5.49316     -7.10135   54169.00000
     5.49316     -7.08425   54270.00000
    -5.49316      8.47462   55861.00000
    -5.49316      9.35362   55961.00000
    -5.49316      9.58547   56062.00000
    -5.49316      9.51995   56161.00000
    -5.49316      9.47303   56261.00000
    -5.49316      9.43621   56362.00000
    -5.49316      9.40395   56461.00000
    -5.49316      9.37575   56561.00000
    -5.49316      9.35049   56662.00000
    -5.49316      9.32812   56761.00000
    -0.00488      0.01833   57758.00000
    -0.00488     -0.17972   57860.00000
    -0.00488     -0.19587   57959.00000
    -0.00488     -0.16378   58058.00000
    -0.00488     -0.13763   58160.00000
    -0.00488     -0.11807   58259.00000
    -0.00488     -0.09013   58359.00000
    -0.00488     -0.07849   58460.00000
    -0.00488     -0.06922   58559.00000
    -0.00488     -0.06047   58659.00000
     5.99121     -7.87326   59411.00000
     5.99121     -8.22689   59512.00000
     5.99121     -8.23780   59613.00000
     5.99121     -8.17356   59712.00000
     5.99121     -8.12561   59812.00000
     5.99121     -8.08941   59913.00000
     5.99121     -8.05942   60012.00000
     5.99121     -8.00809   60112.00000
     5.99121     -7.98718   60213.00000
     5.99121     -7.96789   60312.00000
    -5.99365      9.50161   61941.00000
    -5.99365     10.36435   62042.00000
    -5.99365     10.58193   62141.00000
    -5.99365     10.50972   62241.00000
    -5.99365     10.45979   62342.00000
    -5.99365     10.41967   62441.00000
    -5.99365     10.38507   62541.00000
    -5.99365     10.35384   62642.00000
    -5.99365     10.32701   62741.00000
    -5.99365     10.28163   62841.00000
    -0.00488      0.11799   63839.00000
    -0.00488     -0.17372   63940.00000
    -0.00488     -0.22716   64041.00000
    -0.00488     -0.19633   64140.00000
    -0.00488     -0.16524   64239.00000
    -0.00488     -0.12612   64341.00000
    -0.00488     -0.11215   64440.00000
    -0.00488     -0.09956   64540.00000
    -0.00488     -0.08951   64641.00000
    -0.00488     -0.08000   64740.00000
     6.49170     -8.55574   65529.00000
     6.49170     -9.09367   65630.00000
     6.49170     -9.18912   65729.00000
     6.49170     -9.06879   65829.00000
     6.49170     -9.02468   65930.00000
     6.49170     -8.98869   66029.00000
     6.49170     -8.95898   66129.00000
     6.49170     -8.93374   66230.00000
     6.49170     -8.91002   66329.00000
     6.49170     -8.88736   66430.00000
    -6.49414     11.33876   68119.00000
    -6.49414     11.64185   68220.00000
    -6.49414     11.62045   68321.00000
    -6.49414     11.54105   68420.00000
    -6.49414     11.48354   68521.00000
    -6.49414     11.43858   68620.00000
    -6.49414     11.40117   68720.00000
    -6.49414     11.33798   68821.00000
    -6.49414     11.31153   68920.00000
    -6.49414     11.28735   69020.00000
    -0.00488      0.33109   70048.00000
    -0.00488     -0.24866   70150.00000
    -0.00488     -0.24031   70249.00000
    -0.00488     -0.20265   70349.00000
    -0.00488     -0.17645   70449.00000
    -0.00488     -0.15600   70549.00000
    -0.00488     -0.13922   70649.00000
    -0.00488     -0.12569   70750.00000
    -0.00488     -0.10143   70849.00000
    -0.00488     -0.09335   70949.00000
     6.99463     -9.68053   71739.00000
     6.99463    -10.12609   71839.00000
     6.99463    -10.15314   71940.00000
     6.99463    -10.07611   72039.00000
     6.99463    -10.01806   72139.00000
     6.99463     -9.97356   72240.00000
     6.99463     -9.93723   72339.00000
     6.99463     -9.87679   72439.00000
     6.99463     -9.85097   72540.00000
     6.99463     -9.82898   72639.00000
    -6.99463     12.25766   74373.00000
    -6.99463     12.69842   74473.00000
    -6.99463     12.70712   74573.00000
    -6.99463     12.61961   74674.00000
    -6.99463     12.55362   74773.00000
    -6.99463     12.50375   74873.00000
    -6.99463     12.46152   74974.00000
    -6.99463     12.39171   75073.00000
    -6.99463     12.36283   75173.00000
    -6.99463     12.33641   75274.00000
    -0.00488     -0.03943   76338.00000
    -0.00488     -0.24950   76438.00000
    -0.00488     -0.27497   76538.00000
    -0.00488     -0.24012   76639.00000
    -0.00488     -0.20754   76738.00000
    -0.00488     -0.16499   76838.00000
    -0.00488     -0.14965   76939.00000
    -0.00488     -0.13755   77038.00000
    -0.00488     -0.12623   77139.00000
    -0.00488     -0.11653   77238.00000
     7.49268     -9.95306   78051.00000
     7.49268    -11.17229   78152.00000
     7.49268    -11.13655   78253.00000
     7.49268    -11.05623   78352.00000
     7.49268    -10.99936   78452.00000
     7.49268    -10.95420   78553.00000
     7.49268    -10.91575   78652.00000
     7.49268    -10.88201   78752.00000
     7.49268    -10.82598   78853.00000
     7.49268    -10.80280   78952.00000
    -7.49512     13.19882   80728.00000
    -7.49512     13.79116   80828.00000
    -7.49512     13.85894   80928.00000
    -7.49512     13.76550   81029.00000
    -7.49512     13.69104   81128.00000
    -7.49512     13.58614   81228.00000
    -7.49512     13.54543   81329.00000
    -7.49512     13.50999   81428.00000
    -7.49512     13.47741   81528.00000
    -7.49512     13.44818   81629.00000
    -0.00488      0.11742   82716.00000
    -0.00488     -0.30353   82818.00000
    -0.00488     -0.28254   82917.00000
    -0.00488     -0.24445   83017.00000
    -0.00488     -0.21578   83118.00000
    -0.00488     -0.19525   83217.00000
    -0.00488     -0.17756   83317.00000
    -0.00488     -0.16272   83418.00000
    -0.00488     -0.13936   83517.00000
    -0.00488     -0.12882   83617.00000
     7.99072    -11.27665   84443.00000
     7.99072    -12.04834   84543.00000
     7.99072    -12.22456   84643.00000
     7.99072    -12.14884   84744.00000
     7.99072    -12.00917   84843.00000
     7.99072    -11.96214   84943.00000
     7.99072    -11.92213   85044.00000
     7.99072    -11.88749   85143.00000
     7.99072    -11.85697   85243.00000
     7.99072    -11.82876   85344.00000
    -7.99072     14.26650   87154.00000
    -7.99072     14.96379   87256.00000
    -7.99072     15.06858   87355.00000
    -7.99072     14.97125   87455.00000
    -7.99072     14.88863   87556.00000
    -7.99072     14.77320   87655.00000
    -7.99072     14.72781   87755.00000
    -7.99072     14.68850   87856.00000
    -7.99072     14.65328   87955.00000
    -7.99072     14.62134   88055.00000
    -0.00488     -0.17664   89157.00000
    -0.00488     -0.32090   89258.00000
    -0.00488     -0.31679   89357.00000
    -0.00488     -0.27708   89457.00000
    -0.00488     -0.24547   89557.00000
    -0.00488     -0.22167   89657.00000
    -0.00488     -0.20133   89757.00000
    -0.00488     -0.17113   89858.00000
    -0.00488     -0.15784   89957.00000
    -0.00488     -0.14841   90057.00000
     8.49365    -12.89336   90907.00000
     8.49365    -13.28465   91009.00000
     8.49365    -13.26406   91108.00000
     8.49365    -13.16551   91208.00000
     8.49365    -13.09403   91309.00000
     8.49365    -13.03835   91408.00000
     8.49365    -12.99215   91508.00000
     8.49365    -12.95217   91609.00000
     8.49365    -12.88555   91708.00000
     8.49365    -12.85686   91808.00000
    -8.49365     15.53916   93663.00000
    -8.49365     16.26053   93764.00000
    -8.49365     16.36281   93865.00000
    -8.49365     16.25745   93964.00000
    -8.49365     16.16719   94064.00000
    -8.49365     16.04484   94165.00000
    -8.49365     15.99602   94264.00000
    -8.49365     15.95274   94364.00000
    -8.49365     15.91403   94465.00000
    -8.49365     15.88091   94564.00000
    -0.00488     -0.15602   95690.00000
    -0.00488     -0.33346   95791.00000
    -0.00488     -0.34602   95890.00000
    -0.00488     -0.30507   95990.00000
    -0.00488     -0.27062   96091.00000
    -0.00488     -0.22399   96190.00000
    -0.00488     -0.20654   96289.00000
    -0.00488     -0.19285   96391.00000
    -0.00488     -0.17945   96490.00000
    -0.00488     -0.16807   96590.00000
     8.99414    -13.53197   97477.00000
     8.99414    -14.25253   97578.00000
     8.99414    -14.40079   97677.00000
     8.99414    -14.21776   97777.00000
     8.99414    -14.15030   97878.00000
     8.99414    -14.09468   97977.00000
     8.99414    -14.04724   98077.00000
     8.99414    -14.00666   98178.00000
     8.99414    -13.97111   98277.00000
     8.99414    -13.93920   98377.00000
    -8.99414     16.98251  100269.00000
    -8.99414     17.65544  100369.00000
    -8.99414     17.74089  100469.00000
    -8.99414     17.62999  100570.00000
    -8.99414     17.53338  100669.00000
    -8.99414     17.40039  100769.00000
    -8.99414     17.34941  100870.00000
    -8.99414     17.30400  100969.00000
    -8.99414     17.26366  101069.00000
    -8.99414     17.22746  101170.00000
    -0.00488     -0.10083  102301.00000
    -0.00488     -0.34038  102402.00000
    -0.00488     -0.37652  102501.00000
    -0.00488     -0.33668  102601.00000
    -0.00488     -0.26779  102702.00000
    -0.00488     -0.24601  102801.00000
    -0.00488     -0.22942  102901.00000
    -0.00488     -0.21300  103002.00000
    -0.00488     -0.19814  103101.00000
    -0.00488     -0.18574  103201.00000
     9.49463    -14.26025  104082.00000
     9.49463    -15.25444  104183.00000
     9.49463    -15.44325  104284.00000
     9.49463    -15.33460  104383.00000
     9.49463    -15.25671  104483.00000
     9.49463    -15.19255  104584.00000
     9.49463    -15.14003  104683.00000
     9.49463    -15.09530  104783.00000
     9.49463    -15.05420  104884.00000
     9.49463    -15.01749  104983.00000
    -9.49463     17.52617  106899.00000
    -9.49463     18.84427  106999.00000
    -9.49463     19.18315  107100.00000
    -9.49463     19.05875  107199.00000
    -9.49463     18.97001  107299.00000
    -9.49463     18.89917  107400.00000
    -9.49463     18.83777  107499.00000
    -9.49463     18.78473  107599.00000
    -9.49463     18.73794  107700.00000
    -9.49463     18.65806  107799.00000
    -0.00488     -0.26709  108955.00000
    -0.00488     -0.39465  109056.00000
    -0.00488     -0.38239  109155.00000
    -0.00488     -0.33768  109255.00000
    -0.00488     -0.30342  109355.00000
    -0.00488     -0.27846  109455.00000
    -0.00488     -0.25677  109555.00000
    -0.00488     -0.22292  109656.00000
    -0.00488     -0.21105  109755.00000
    -0.00488     -0.19833  109855.00000
     9.99512    -15.60454  110767.00000
     9.99512    -16.46457  110867.00000
     9.99512    -16.55893  110967.00000
     9.99512    -16.44393  111068.00000
     9.99512    -16.36102  111167.00000
     9.99512    -16.29353  111267.00000
     9.99512    -16.23664  111368.00000
     9.99512    -16.18785  111467.00000
     9.99512    -16.14417  111567.00000
     9.99512    -16.10540  111668.00000
    -9.99512     19.72071  113649.00000
    -9.99512     20.69820  113751.00000
    -9.99512     20.88247  113850.00000
    -9.99512     20.75386  113950.00000
    -9.99512     20.54567  114051.00000
    -9.99512     20.47335  114150.00000
    -9.99512     20.41141  114250.00000
    -9.99512     20.35584  114351.00000
    -9.99512     20.30726  114450.00000
    -9.99512     20.26404  114550.00000
    -0.00488     -0.30169  115749.00000
    -0.00488     -0.41956  115850.00000
    -0.00488     -0.40924  115949.00000
    -0.00488     -0.36561  116049.00000
    -0.00488     -0.32968  116150.00000
    -0.00488     -0.27916  116249.00000
    -0.00488     -0.26082  116350.00000
    -0.00488     -0.24553  116449.00000
    -0.00488     -0.23221  116549.00000
    -0.00488     -0.22005  116650.00000
    10.49316    -17.33500  117590.00000
    10.49316    -17.74453  117691.00000
    10.49316    -17.71438  117791.00000
    10.49316    -17.57828  117892.00000
    10.49316    -17.47483  117991.00000
    10.49316    -17.39400  118091.00000
    10.49316    -17.27044  118192.00000
    10.49316    -17.22227  118291.00000
    10.49316    -17.17837  118391.00000
    10.49316    -17.13779  118492.00000
   -10.49316     21.86484  120493.00000
   -10.49316     22.57915  120593.00000
   -10.49316     22.62145  120693.00000
   -10.49316     22.46793  120794.00000
   -10.49316     22.35052  120893.00000
   -10.49316     22.26161  120993.00000
   -10.49316     22.12205  121094.00000
   -10.49316     22.06459  121193.00000
   -10.49316     22.01296  121293.00000
   -10.49316     21.96603  121394.00000
    -0.00488     -0.00250  122573.00000
    -0.00488     -0.45206  122675.00000
    -0.00488     -0.42485  122774.00000
    -0.00488     -0.37698  122874.00000
    -0.00488     -0.34248  122975.00000
    -0.00488     -0.31596  123074.00000
    -0.00488     -0.29407  123174.00000
    -0.00488     -0.27470  123275.00000
    -0.00488     -0.24380  123374.00000
    -0.00488     -0.23150  123475.00000
    10.99365    -17.62855  124421.00000
    10.99365    -18.85162  124522.00000
    10.99365    -18.73802  124622.00000
    10.99365    -18.59265  124723.00000
    10.99365    -18.48934  124822.00000
    10.99365    -18.40738  124922.00000
    10.99365    -18.33930  125023.00000
    10.99365    -18.28027  125122.00000
    10.99365    -18.18310  125222.00000
    10.99365    -18.14068  125323.00000
   -10.99365     23.15695  127378.00000
   -10.99365     24.35870  127478.00000
   -10.99365     24.59862  127579.00000
   -10.99365     24.44745  127678.00000
   -10.99365     24.19507  127778.00000
   -10.99365     24.10643  127879.00000
   -10.99365     24.03184  127978.00000
   -10.99365     23.96663  128078.00000
   -10.99365     23.90757  128179.00000
   -10.99365     23.85476  128278.00000
    -0.00488     -0.25269  129507.00000
    -0.00488     -0.44668  129608.00000
    -0.00488     -0.42872  129709.00000
    -0.00488     -0.38657  129808.00000
    -0.00488     -0.35402  129908.00000
    -0.00488     -0.32833  130009.00000
    -0.00488     -0.30788  130108.00000
    -0.00488     -0.29086  130207.00000
    -0.00488     -0.27368  130309.00000
    -0.00488     -0.25928  130408.00000
    10.99365    -17.74310  131355.00000
    10.99365    -18.57358  131457.00000
    10.99365    -18.60770  131556.00000
    10.99365    -18.47513  131656.00000
    10.99365    -18.37971  131757.00000
    10.99365    -18.30383  131856.00000
    10.99365    -18.23880  131956.00000
    10.99365    -18.18264  132057.00000
    10.99365    -18.13355  132156.00000
    10.99365    -18.08908  132256.00000
   -10.99365     23.33404  134313.00000
   -10.99365     24.33026  134414.00000
   -10.99365     24.45825  134514.00000
   -10.99365     24.29595  134615.00000
   -10.99365     24.16492  134714.00000
   -10.99365     23.98341  134814.00000
   -10.99365     23.91195  134915.00000
   -10.99365     23.84954  135014.00000
   -10.99365     23.79405  135114.00000
   -10.99365     23.74324  135215.00000
    -0.00488     -0.31612  136443.00000
    -0.00488     -0.47451  136544.00000
    -0.00488     -0.47975  136643.00000
    -0.00488     -0.43382  136743.00000
    -0.00488     -0.36177  136844.00000
    -0.00488     -0.33724  136943.00000
    -0.00488     -0.31633  137044.00000
    -0.00488     -0.29842  137143.00000
    -0.00488     -0.28200  137243.00000
    -0.00488     -0.26849  137344.00000
    10.49316    -16.84878  138284.00000
    10.49316    -17.41221  138385.00000
    10.49316    -17.45325  138485.00000
    10.49316    -17.32058  138586.00000
    10.49316    -17.13096  138685.00000
    10.49316    -17.06447  138785.00000
    10.49316    -17.00855  138886.00000
    10.49316    -16.96033  138985.00000
    10.49316    -16.91805  139085.00000
    10.49316    -16.87877  139186.00000
   -10.49072     21.24332  141187.00000
   -10.49072     22.16354  141287.00000
   -10.49072     22.31253  141387.00000
   -10.49072     22.17149  141488.00000
   -10.49072     21.95755  141587.00000
   -10.49072     21.88267  141687.00000
   -10.49072     21.81929  141788.00000
   -10.49072     21.76412  141887.00000
   -10.49072     21.71544  141987.00000
   -10.49072     21.67011  142088.00000
    -0.00488     -0.34524  143267.00000
    -0.00488     -0.48253  143368.00000
    -0.00488     -0.47084  143467.00000
    -0.00488     -0.42164  143567.00000
    -0.00488     -0.38228  143668.00000
    -0.00488     -0.35310  143767.00000
    -0.00488     -0.33033  143867.00000
    -0.00488     -0.29086  143968.00000
    -0.00488     -0.27676  144067.00000
    -0.00488     -0.26441  144167.00000
     9.99512    -15.24483  145079.00000
     9.99512    -16.08541  145179.00000
     9.99512    -16.28008  145280.00000
     9.99512    -16.06782  145379.00000
     9.99512    -15.98642  145479.00000
     9.99512    -15.92151  145580.00000
     9.99512    -15.86810  145679.00000
     9.99512    -15.82109  145779.00000
     9.99512    -15.78000  145880.00000
     9.99512    -15.74358  145979.00000
    -9.99512     19.72943  147931.00000
    -9.99512     20.37859  148032.00000
    -9.99512     20.40147  148132.00000
    -9.99512     20.26328  148233.00000
    -9.99512     20.16071  148332.00000
    -9.99512     20.08152  148432.00000
    -9.99512     20.01577  148533.00000
    -9.99512     19.91106  148632.00000
    -9.99512     19.86664  148732.00000
    -9.99512     19.82599  148833.00000
    -0.00488     -0.17356  150025.00000
    -0.00488     -0.47902  150126.00000
    -0.00488     -0.44504  150227.00000
    -0.00488     -0.40184  150326.00000
    -0.00488     -0.36828  150426.00000
    -0.00488     -0.34094  150527.00000
    -0.00488     -0.31917  150626.00000
    -0.00488     -0.30061  150726.00000
    -0.00488     -0.27181  150827.00000
    -0.00488     -0.25866  150926.00000
     9.49219    -14.52616  151806.00000
     9.49219    -15.06628  151907.00000
     9.49219    -15.08306  152007.00000
     9.49219    -14.96362  152108.00000
     9.49219    -14.87547  152207.00000
     9.49219    -14.80810  152307.00000
     9.49219    -14.70606  152408.00000
     9.49219    -14.66499  152507.00000
     9.49219    -14.62820  152607.00000
     9.49219    -14.59573  152708.00000
    -9.49219     17.89574  154623.00000
    -9.49219     18.65655  154724.00000
    -9.49219     18.72838  154824.00000
    -9.49219     18.59738  154925.00000
    -9.49219     18.49875  155024.00000
    -9.49219     18.42300  155124.00000
    -9.49219     18.30797  155225.00000
    -9.49219     18.26226  155324.00000
    -9.49219     18.21898  155424.00000
    -9.49219     18.18108  155525.00000
    -0.00488     -0.21413  156680.00000
    -0.00488     -0.43326  156781.00000
    -0.00488     -0.46446  156881.00000
    -0.00488     -0.37995  156982.00000
    -0.00488     -0.34983  157081.00000
    -0.00488     -0.32582  157182.00000
    -0.00488     -0.30418  157281.00000
    -0.00488     -0.28651  157381.00000
    -0.00488     -0.27192  157482.00000
    -0.00488     -0.25876  157581.00000
     8.99414    -12.86353  158468.00000
     8.99414    -13.96724  158568.00000
     8.99414    -13.90173  158668.00000
     8.99414    -13.80091  158769.00000
     8.99414    -13.72945  158868.00000
     8.99414    -13.67307  158968.00000
     8.99414    -13.62574  159069.00000
     8.99414    -13.58535  159168.00000
     8.99414    -13.51849  159268.00000
     8.99414    -13.48910  159369.00000
    -8.99414     16.17024  161259.00000
    -8.99414     17.01882  161359.00000
    -8.99414     17.20366  161460.00000
    -8.99414     17.00802  161559.00000
    -8.99414     16.93286  161659.00000
    -8.99414     16.87186  161760.00000
    -8.99414     16.82080  161859.00000
    -8.99414     16.77658  161959.00000
    -8.99414     16.73832  162060.00000
    -8.99414     16.70236  162159.00000
    -0.00488     -0.10588  163291.00000
    -0.00488     -0.39363  163392.00000
    -0.00488     -0.42110  163491.00000
    -0.00488     -0.37747  163593.00000
    -0.00488     -0.34532  163692.00000
    -0.00488     -0.31963  163792.00000
    -0.00488     -0.29875  163893.00000
    -0.00488     -0.28151  163992.00000
    -0.00488     -0.26700  164092.00000
    -0.00488     -0.25347  164192.00000
     8.49365    -11.89933  165042.00000
     8.49365    -12.69290  165142.00000
     8.49365    -12.88141  165242.00000
     8.49365    -12.70806  165343.00000
     8.49365    -12.64357  165442.00000
     8.49365    -12.59308  165542.00000
     8.49365    -12.54988  165643.00000
     8.49365    -12.51333  165742.00000
     8.49365    -12.48037  165843.00000
     8.49365    -12.45058  165942.00000
    -8.49121     14.16249  167796.00000
    -8.49121     15.79203  167898.00000
    -8.49121     15.76588  167997.00000
    -8.49121     15.65790  168097.00000
    -8.49121     15.57934  168198.00000
    -8.49121     15.51809  168297.00000
    -8.49121     15.46682  168397.00000
    -8.49121     15.42203  168498.00000
    -8.49121     15.34830  168597.00000
    -8.49121     15.31723  168697.00000
    -0.00488     -0.35013  169823.00000
    -0.00488     -0.43912  169924.00000
    -0.00488     -0.41562  170025.00000
    -0.00488     -0.37388  170124.00000
    -0.00488     -0.34108  170224.00000
    -0.00488     -0.31498  170325.00000
    -0.00488     -0.29437  170424.00000
    -0.00488     -0.27646  170523.00000
    -0.00488     -0.24688  170625.00000
    -0.00488     -0.23594  170724.00000
     7.99316    -10.81182  171549.00000
     7.99316    -11.61061  171651.00000
     7.99316    -11.81552  171750.00000
     7.99316    -11.65978  171850.00000
     7.99316    -11.59970  171951.00000
     7.99316    -11.55215  172050.00000
     7.99316    -11.51187  172150.00000
     7.99316    -11.47821  172251.00000
     7.99316    -11.44709  172350.00000
     7.99316    -11.41878  172450.00000
    -7.99316     13.64155  174257.00000
    -7.99316     14.38269  174357.00000
    -7.99316     14.51674  174457.00000
    -7.99316     14.42183  174558.00000
    -7.99316     14.33571  174657.00000
    -7.99316     14.21981  174757.00000
    -7.99316     14.17808  174858.00000
    -7.99316     14.13939  174957.00000
    -7.99316     14.10319  175057.00000
    -7.99316     14.07242  175158.00000
    -0.00488     -0.28346  176258.00000
    -0.00488     -0.41699  176358.00000
    -0.00488     -0.40621  176459.00000
    -0.00488     -0.36342  176560.00000
    -0.00488     -0.32898  176659.00000
    -0.00488     -0.30277  176759.00000
    -0.00488     -0.26560  176860.00000
    -0.00488     -0.25139  176959.00000
    -0.00488     -0.23739  177059.00000
    -0.00488     -0.22462  177160.00000
     7.49512     -9.90740  177972.00000
     7.49512    -10.63063  178073.00000
     7.49512    -10.80223  178174.00000
     7.49512    -10.65576  178273.00000
     7.49512    -10.60108  178373.00000
     7.49512    -10.55734  178474.00000
     7.49512    -10.51987  178573.00000
     7.49512    -10.48802  178673.00000
     7.49512    -10.45992  178774.00000
     7.49512    -10.43361  178873.00000
    -7.49512     12.88590  180649.00000
    -7.49512     13.31007  180750.00000
    -7.49512     13.30583  180850.00000
    -7.49512     13.20963  180951.00000
    -7.49512     13.13896  181050.00000
    -7.49512     13.08425  181150.00000
    -7.49512     13.03951  181251.00000
    -7.49512     12.96660  181350.00000
    -7.49512     12.93753  181450.00000
    -7.49512     12.91000  181551.00000
    -0.00488     -0.11639  182633.00000
    -0.00488     -0.36150  182733.00000
    -0.00488     -0.40470  182834.00000
    -0.00488     -0.32922  182933.00000
    -0.00488     -0.30169  183033.00000
    -0.00488     -0.27919  183134.00000
    -0.00488     -0.25963  183233.00000
    -0.00488     -0.24547  183333.00000
    -0.00488     -0.23259  183434.00000
    -0.00488     -0.22005  183533.00000
     6.99219     -8.68420  184323.00000
     6.99219     -9.81382  184423.00000
     6.99219     -9.77881  184523.00000
     6.99219     -9.70317  184624.00000
     6.99219     -9.64857  184723.00000
     6.99219     -9.60459  184823.00000
     6.99219     -9.56809  184924.00000
     6.99219     -9.53778  185023.00000
     6.99219     -9.51120  185123.00000
     6.99219     -9.46659  185224.00000
    -6.99463     11.06321  186955.00000
    -6.99463     11.96055  187056.00000
    -6.99463     12.17529  187155.00000
    -6.99463     12.09049  187255.00000
    -6.99463     12.03019  187356.00000
    -6.99463     11.98265  187455.00000
    -6.99463     11.94175  187555.00000
    -6.99463     11.90676  187656.00000
    -6.99463     11.87629  187755.00000
    -6.99463     11.82331  187855.00000
    -0.00488     -0.25066  188920.00000
    -0.00488     -0.37842  189021.00000
    -0.00488     -0.36793  189120.00000
    -0.00488     -0.32676  189220.00000
    -0.00488     -0.29542  189321.00000
    -0.00488     -0.27198  189420.00000
    -0.00488     -0.25252  189520.00000
    -0.00488     -0.22154  189621.00000
    -0.00488     -0.21014  189720.00000
    -0.00488     -0.19952  189820.00000
     6.49414     -8.44971  190604.00000
     6.49414     -8.83978  190704.00000
     6.49414     -8.86677  190805.00000
     6.49414     -8.79405  190904.00000
     6.49414     -8.73810  191004.00000
     6.49414     -8.69577  191105.00000
     6.49414     -8.63098  191204.00000
     6.49414     -8.60543  191304.00000
     6.49414     -8.58214  191405.00000
     6.49414     -8.56137  191504.00000
    -6.49414     10.32785  193194.00000
    -6.49414     11.02538  193295.00000
    -6.49414     11.12356  193395.00000
    -6.49414     11.04929  193496.00000
    -6.49414     10.99516  193595.00000
    -6.49414     10.95098  193695.00000
    -6.49414     10.91500  193796.00000
    -6.49414     10.88380  193895.00000
    -6.49414     10.85511  193995.00000
    -6.49414     10.82971  194096.00000
    -0.00488      0.00844  195123.00000
    -0.00488     -0.29596  195224.00000
    -0.00488     -0.36485  195324.00000
    -0.00488     -0.29415  195425.00000
    -0.00488     -0.26738  195524.00000
    -0.00488     -0.24631  195625.00000
    -0.00488     -0.22853  195724.00000
    -0.00488     -0.21405  195824.00000
    -0.00488     -0.20184  195925.00000
    -0.00488     -0.19098  196024.00000
     5.99121     -7.35867  196777.00000
     5.99121     -7.88868  196876.00000
     5.99121     -7.97894  196976.00000
     5.99121     -7.91599  197077.00000
     5.99121     -7.85834  197176.00000
     5.99121     -7.78492  197276.00000
     5.99121     -7.75606  197377.00000
     5.99121     -7.73029  197476.00000
     5.99121     -7.70873  197576.00000
     5.99121     -7.68966  197677.00000
    -5.99365      9.78246  199299.00000
    -5.99365     10.17113  199399.00000
    -5.99365     10.17940  199499.00000
    -5.99365     10.10113  199600.00000
    -5.99365     10.04273  199699.00000
    -5.99365      9.99931  199799.00000
    -5.99365      9.96355  199900.00000
    -5.99365      9.90403  199999.00000
    -5.99365      9.87880  200099.00000
    -5.99365      9.85740  200200.00000
    -0.00488      0.12218  201196.00000
    -0.00488     -0.24488  201297.00000
    -0.00488     -0.31347  201398.00000
    -0.00488     -0.27597  201497.00000
    -0.00488     -0.24842  201598.00000
    -0.00488     -0.22756  201697.00000
    -0.00488     -0.21124  201797.00000
    -0.00488     -0.19749  201898.00000
    -0.00488     -0.18455  201997.00000
    -0.00488     -0.17413  202097.00000
     5.49316     -6.66183  202819.00000
     5.49316     -7.06674  202919.00000
     5.49316     -7.09681  203020.00000
     5.49316     -7.03184  203119.00000
     5.49316     -6.98364  203220.00000
     5.49316     -6.94728  203319.00000
     5.49316     -6.91789  203419.00000
     5.49316     -6.87126  203520.00000
     5.49316     -6.85251  203619.00000
     5.49316     -6.83400  203719.00000
    -5.49316      8.60897  205300.00000
    -5.49316      9.15919  205401.00000
    -5.49316      9.23975  205500.00000
    -5.49316      9.16900  205600.00000
    -5.49316      9.11111  205701.00000
    -5.49316      9.03227  205800.00000
    -5.49316      9.00280  205900.00000
    -5.49316      8.97735  206001.00000
    -5.49316      8.95317  206100.00000
    -5.49316      8.93315  206200.00000
    -0.00488      0.14558  207179.00000
    -0.00488     -0.21894  207281.00000
    -0.00488     -0.29010  207380.00000
    -0.00488     -0.25428  207480.00000
    -0.00488     -0.22726  207581.00000
    -0.00488     -0.20814  207680.00000
    -0.00488     -0.19223  207780.00000
    -0.00488     -0.17864  207881.00000
    -0.00488     -0.16675  207980.00000
    -0.00488     -0.15724  208080.00000
     4.99512     -5.15335  208784.00000
     4.99512     -6.24871  208884.00000
     4.99512     -6.24080  208985.00000
     4.99512     -6.18280  209084.00000
     4.99512     -6.14087  209184.00000
     4.99512     -6.10951  209285.00000
     4.99512     -6.08354  209384.00000
     4.99512     -6.06223  209484.00000
     4.99512     -6.02570  209585.00000
     4.99512     -6.00831  209684.00000
    -4.99512      7.30037  211233.00000
    -4.99512      8.09119  211335.00000
    -4.99512      8.29232  211434.00000
    -4.99512      8.22924  211534.00000
    -4.99512      8.18426  211635.00000
    -4.99512      8.14930  211734.00000
    -4.99512      8.11899  211834.00000
    -4.99512      8.09419  211935.00000
    -4.99512      8.07169  212034.00000
    -4.99512      8.03257  212134.00000
    -0.00488      0.31304  213078.00000
    -0.00488     -0.14357  213179.00000
    -0.00488     -0.26884  213279.00000
    -0.00488     -0.23283  213380.00000
    -0.00488     -0.20668  213479.00000
    -0.00488     -0.18788  213579.00000
    -0.00488     -0.17286  213680.00000
    -0.00488     -0.15978  213779.00000
    -0.00488     -0.14846  213879.00000
    -0.00488     -0.12893  213980.00000
     4.49463     -4.60923  214658.00000
     4.49463     -5.25366  214758.00000
     4.49463     -5.40975  214858.00000
     4.49463     -5.36005  214959.00000
     4.49463     -5.32541  215058.00000
     4.49463     -5.29764  215158.00000
     4.49463     -5.27581  215259.00000
     4.49463     -5.25601  215358.00000
     4.49463     -5.23853  215458.00000
     4.49463     -5.22327  215559.00000
    -4.49463      6.48678  217034.00000
    -4.49463      7.22295  217136.00000
    -4.49463      7.40098  217235.00000
    -4.49463      7.34317  217335.00000
    -4.49463      7.30197  217436.00000
    -4.49463      7.26982  217535.00000
    -4.49463      7.24305  217635.00000
    -4.49463      7.21936  217736.00000
    -4.49463      7.19909  217836.00000
    -4.49463      7.16368  217935.00000
    -0.00488      0.16565  218860.00000
    -0.00488     -0.18039  218960.00000
    -0.00488     -0.25725  219061.00000
    -0.00488     -0.22970  219160.00000
    -0.00488     -0.17783  219260.00000
    -0.00488     -0.15932  219361.00000
    -0.00488     -0.14533  219460.00000
    -0.00488     -0.13412  219561.00000
    -0.00488     -0.12307  219660.00000
    -0.00488     -0.11345  219760.00000
     3.99414     -4.28702  220397.00000
     3.99414     -4.62706  220497.00000
     3.99414     -4.64211  220598.00000
     3.99414     -4.59127  220697.00000
     3.99414     -4.55593  220798.00000
     3.99414     -4.52908  220897.00000
     3.99414     -4.50793  220997.00000
     3.99414     -4.49037  221098.00000
     3.99414     -4.45952  221197.00000
     3.99414     -4.44601  221297.00000
    -3.99414      5.89728  222712.00000
    -3.99414      6.46533  222814.00000
    -3.99414      6.56831  222913.00000
    -3.99414      6.51317  223013.00000
    -3.99414      6.46687  223114.00000
    -3.99414      6.40633  223213.00000
    -3.99414      6.38372  223313.00000
    -3.99414      6.36359  223414.00000
    -3.99414      6.34508  223513.00000
    -3.99414      6.32744  223614.00000
    -0.00488      0.36583  224513.00000
    -0.00488     -0.08651  224614.00000
    -0.00488     -0.20816  224714.00000
    -0.00488     -0.17648  224815.00000
    -0.00488     -0.15351  224914.00000
    -0.00488     -0.13668  225014.00000
    -0.00488     -0.12312  225115.00000
    -0.00488     -0.11231  225214.00000
    -0.00488     -0.10256  225314.00000
    -0.00488     -0.08630  225415.00000
     3.49365     -3.57495  226026.00000
     3.49365     -3.88198  226126.00000
     3.49365     -3.89579  226227.00000
     3.49365     -3.85070  226326.00000
     3.49365     -3.81939  226426.00000
     3.49365     -3.79594  226527.00000
     3.49365     -3.77665  226626.00000
     3.49365     -3.75998  226726.00000
     3.49365     -3.73351  226827.00000
     3.49365     -3.72094  226926.00000
    -3.49121      4.66489  228293.00000
    -3.49121      5.45085  228394.00000
    -3.49121      5.68764  228493.00000
    -3.49121      5.63769  228593.00000
    -3.49121      5.60411  228694.00000
    -3.49121      5.57785  228793.00000
    -3.49121      5.55467  228893.00000
    -3.49121      5.53646  228994.00000
    -3.49121      5.52022  229093.00000
    -3.49121      5.49207  229193.00000
    -0.00488      0.54159  230070.00000
    -0.00488     -0.17729  230170.00000
    -0.00488     -0.17907  230271.00000
    -0.00488     -0.14884  230370.00000
    -0.00488     -0.12709  230470.00000
    -0.00488     -0.11056  230571.00000
    -0.00488     -0.09794  230670.00000
    -0.00488     -0.08773  230770.00000
    -0.00488     -0.06955  230871.00000
    -0.00488     -0.06207  230970.00000
     2.99072     -2.35208  231545.00000
     2.99072     -2.97151  231647.00000
     2.99072     -3.18450  231746.00000
     2.99072     -3.14611  231846.00000
     2.99072     -3.12101  231947.00000
     2.99072     -3.10102  232046.00000
     2.99072     -3.08465  232147.00000
     2.99072     -3.06952  232246.00000
     2.99072     -3.05782  232346.00000
     2.99072     -3.03697  232447.00000
    -2.99072      3.86118  233740.00000
    -2.99072      4.62648  233840.00000
    -2.99072      4.86124  233941.00000
    -2.99072      4.81734  234040.00000
    -2.99072      4.78741  234140.00000
    -2.99072      4.76258  234241.00000
    -2.99072      4.74278  234340.00000
    -2.99072      4.72700  234440.00000
    -2.99072      4.71222  234541.00000
    -2.99072      4.69847  234640.00000
    -0.00488      0.31728  235479.00000
    -0.00488     -0.06379  235580.00000
    -0.00488     -0.14805  235680.00000
    -0.00488     -0.12639  235781.00000
    -0.00488     -0.08508  235880.00000
    -0.00488     -0.07136  235980.00000
    -0.00488     -0.06134  236081.00000
    -0.00488     -0.05104  236180.00000
    -0.00488     -0.04286  236280.00000
    -0.00488     -0.03702  236381.00000
     2.49512     -1.70500  236912.00000
     2.49512     -2.30583  237014.00000
     2.49512     -2.54310  237113.00000
     2.49512     -2.50974  237213.00000
     2.49512     -2.48591  237314.00000
     2.49512     -2.46792  237413.00000
     2.49512     -2.45411  237513.00000
     2.49512     -2.44085  237614.00000
     2.49512     -2.43037  237713.00000
     2.49512     -2.41175  237813.00000
    -2.49512      2.95560  239022.00000
    -2.49512      3.76042  239122.00000
    -2.49512      4.06809  239222.00000
    -2.49512      4.02822  239323.00000
    -2.49512      4.00042  239422.00000
    -2.49512      3.97876  239522.00000
    -2.49512      3.96125  239623.00000
    -2.49512      3.94745  239722.00000
    -2.49512      3.93353  239822.00000
    -2.49512      3.91289  239923.00000
    -0.00488      0.20776  240718.00000
    -0.00488     -0.06971  240819.00000
    -0.00488     -0.10005  240918.00000
    -0.00488     -0.07538  241018.00000
    -0.00488     -0.05728  241119.00000
    -0.00488     -0.04367  241218.00000
    -0.00488     -0.03181  241318.00000
    -0.00488     -0.01552  241419.00000
    -0.00488     -0.00928  241518.00000
    -0.00488     -0.00385  241619.00000
     1.99463     -1.67950  242120.00000
     1.99463     -1.94117  242221.00000
     1.99463     -1.96384  242320.00000
     1.99463     -1.93237  242420.00000
     1.99463     -1.91024  242521.00000
     1.99463     -1.89508  242620.00000
     1.99463     -1.88287  242720.00000
     1.99463     -1.87128  242821.00000
     1.99463     -1.85378  242920.00000
     1.99463     -1.84651  243020.00000
    -1.99463      2.72087  244168.00000
    -1.99463      3.21201  244270.00000
    -1.99463      3.31312  244369.00000
    -1.99463      3.28052  244469.00000
    -1.99463      3.25288  244570.00000
    -1.99463      3.23186  244669.00000
    -1.99463      3.20187  244769.00000
    -1.99463      3.19110  244870.00000
    -1.99463      3.18059  244969.00000
    -1.99463      3.17143  245069.00000
    -0.00488      0.35154  245835.00000
    -0.00488      0.00323  245937.00000
    -0.00488     -0.05450  246036.00000
    -0.00488     -0.03429  246136.00000
    -0.00488     -0.01614  246237.00000
    -0.00488     -0.00339  246336.00000
    -0.00488      0.01374  246436.00000
    -0.00488      0.02079  246537.00000
    -0.00488      0.02568  246636.00000
    -0.00488      0.03038  246736.00000
     1.49414     -0.80431  247195.00000
     1.49414     -1.26403  247297.00000
     1.49414     -1.43112  247396.00000
     1.49414     -1.39827  247496.00000
     1.49414     -1.38309  247597.00000
     1.49414     -1.37020  247696.00000
     1.49414     -1.36058  247796.00000
     1.49414     -1.35353  247897.00000
     1.49414     -1.34521  247996.00000
     1.49414     -1.33827  248096.00000
    -1.49414      1.57944  249146.00000
    -1.49414      2.55526  249247.00000
    -1.49414      2.57647  249348.00000
    -1.49414      2.54597  249447.00000
    -1.49414      2.52603  249547.00000
    -1.49414      2.51158  249648.00000
    -1.49414      2.49923  249747.00000
    -1.49414      2.48883  249847.00000
    -1.49414      2.48070  249948.00000
    -1.49414      2.46735  250047.00000
    -0.00488      0.56034  250765.00000
    -0.00488      0.09076  250865.00000
    -0.00488     -0.00125  250966.00000
    -0.00488      0.01490  251065.00000
    -0.00488      0.03038  251165.00000
    -0.00488      0.04202  251266.00000
    -0.00488      0.05772  251365.00000
    -0.00488      0.06231  251465.00000
    -0.00488      0.06712  251566.00000
    -0.00488      0.07158  251665.00000
     0.99365     -0.59905  252063.00000
     0.99365     -0.89249  252165.00000
     0.99365     -0.94179  252264.00000
     0.99365     -0.91975  252364.00000
     0.99365     -0.90484  252465.00000
     0.99365     -0.89479  252564.00000
     0.99365     -0.88598  252664.00000
     0.99365     -0.87317  252765.00000
     0.99365     -0.86801  252864.00000
     0.99365     -0.86383  252964.00000
    -0.99365      0.93939  253904.00000
    -0.99365      1.83349  254006.00000
    -0.99365      1.89241  254105.00000
    -0.99365      1.86737  254206.00000
    -0.99365      1.85089  254305.00000
    -0.99365      1.83995  254405.00000
    -0.99365      1.83028  254506.00000
    -0.99365      1.82163  254605.00000
    -0.99365      1.80861  254705.00000
    -0.99365      1.80399  254806.00000
    -0.00488      1.17391  255473.00000
    -0.00488      0.40992  255574.00000
    -0.00488      0.07431  255673.00000
    -0.00488      0.08992  255773.00000
    -0.00488      0.09932  255874.00000
    -0.00488      0.10673  255973.00000
    -0.00488      0.11356  256073.00000
    -0.00488      0.11915  256174.00000
    -0.00488      0.12329  256273.00000
    -0.00488      0.13026  256373.00000
     0.49316      0.07752  256711.00000
     0.49316     -0.41580  256813.00000
     0.49316     -0.44820  256912.00000
     0.49316     -0.43155  257012.00000
     0.49316     -0.42137  257113.00000
     0.49316     -0.41459  257212.00000
     0.49316     -0.40900  257312.00000
     0.49316     -0.40394  257413.00000
     0.49316     -0.39711  257512.00000
     0.49316     -0.39265  257612.00000
    -0.49316      0.71068  258424.00000
    -0.49316      1.05683  258525.00000
    -0.49316      1.20868  258624.00000
    -0.49316      1.20255  258724.00000
    -0.49316      1.18858  258825.00000
    -0.49316      1.17262  258924.00000
    -0.49316      1.16765  259024.00000
    -0.49316      1.16297  259125.00000
    -0.49316      1.15897  259224.00000
    -0.49316      1.15492  259324.00000
    -0.00488      0.91819  259920.00000
    -0.00488      0.43410  260021.00000
    -0.00488      0.20206  260120.00000
    -0.00488      0.18942  260220.00000
    -0.00488      0.19766  260321.00000
    -0.00488      0.21057  260420.00000
    -0.00488      0.21468  260521.00000
    -0.00488      0.21781  260620.00000
    -0.00488      0.21827  260720.00000
    -0.00488      0.21973  260821.00000