# Acquired on 27/02/2024 09:57:58 
# SPIDER: Tracking_07714532C-2
# STATIC MEASUREMENT

# pos [mm]		 force [N]		 time [ms]
0.23682			-0.03285			236.00000
0.23682			-0.19079			337.00000
0.23682			-0.34907			437.00000
0.23682			-0.37840			538.00000
0.23682			-0.37705			637.00000
0.23682			-0.37652			737.00000
0.23682			-0.37606			838.00000
0.23682			-0.37554			937.00000
0.23682			-0.37473			1037.00000
0.23682			-0.37312			1138.00000
-0.24170			-0.00676			1930.00000
-0.24170			0.36306			2031.00000
-0.24170			0.41184			2130.00000
-0.24170			0.40581			2230.00000
-0.24170			0.40274			2331.00000
-0.24170			0.39958			2430.00000
-0.24170			0.39829			2530.00000
-0.24170			0.39726			2631.00000
-0.24170			0.39550			2730.00000
-0.24170			0.39437			2830.00000
-0.00732			0.36745			3414.00000
-0.00732			0.23864			3515.00000
-0.00732			0.02914			3614.00000
-0.00732			0.02906			3714.00000
-0.00732			0.03052			3815.00000
-0.00732			0.03102			3914.00000
-0.00732			0.03064			4014.00000
-0.00732			0.03178			4115.00000
-0.00732			0.03333			4214.00000
-0.00732			0.03487			4314.00000
0.49072			-0.28281			4713.00000
0.49072			-0.65089			4814.00000
0.49072			-0.81113			4914.00000
0.49072			-0.82508			5015.00000
0.49072			-0.81462			5114.00000
0.49072			-0.81311			5214.00000
0.49072			-0.81057			5315.00000
0.49072			-0.80874			5414.00000
0.49072			-0.80753			5514.00000
0.49072			-0.80582			5615.00000
-0.49316			0.39769			6541.00000
-0.49316			0.71309			6642.00000
-0.49316			0.81772			6741.00000
-0.49316			0.81885			6841.00000
-0.49316			0.81224			6942.00000
-0.49316			0.80523			7041.00000
-0.49316			0.80244			7142.00000
-0.49316			0.80018			7241.00000
-0.49316			0.79900			7341.00000
-0.49316			0.79696			7442.00000
-0.00732			0.66173			8091.00000
-0.00732			0.06830			8192.00000
-0.00732			0.00576			8291.00000
-0.00732			0.00300			8393.00000
-0.00732			0.00692			8492.00000
-0.00732			0.01099			8593.00000
-0.00732			0.01124			8692.00000
-0.00732			0.01154			8792.00000
-0.00732			0.01403			8893.00000
-0.00732			0.01391			8992.00000
0.74219			-0.79949			9444.00000
0.74219			-1.15181			9544.00000
0.74219			-1.25860			9645.00000
0.74219			-1.26132			9746.00000
0.74219			-1.25471			9845.00000
0.74219			-1.24659			9945.00000
0.74219			-1.24322			10046.00000
0.74219			-1.24031			10145.00000
0.74219			-1.23857			10244.00000
0.74219			-1.23641			10346.00000
-0.74463			0.79231			11382.00000
-0.74463			1.12379			11483.00000
-0.74463			1.22320			11584.00000
-0.74463			1.22172			11683.00000
-0.74463			1.21284			11783.00000
-0.74463			1.20347			11884.00000
-0.74463			1.19980			11983.00000
-0.74463			1.19673			12083.00000
-0.74463			1.19505			12184.00000
-0.74463			1.19296			12283.00000
-0.00732			0.61358			12988.00000
-0.00732			0.18789			13089.00000
-0.00732			0.01172			13189.00000
-0.00732			-0.00761			13290.00000
-0.00732			-0.00505			13389.00000
-0.00732			-0.00236			13489.00000
-0.00732			0.00046			13590.00000
-0.00732			0.00239			13689.00000
-0.00732			0.00181			13789.00000
-0.00732			0.00312			13890.00000
0.98877			-1.15535			14384.00000
0.98877			-1.54937			14486.00000
0.98877			-1.67911			14585.00000
0.98877			-1.68402			14685.00000
0.98877			-1.66798			14786.00000
0.98877			-1.66323			14885.00000
0.98877			-1.65853			14985.00000
0.98877			-1.65400			15086.00000
0.98877			-1.65124			15185.00000
0.98877			-1.64903			15285.00000
-0.99365			1.11090			16414.00000
-0.99365			1.48295			16515.00000
-0.99365			1.61214			16616.00000
-0.99365			1.61166			16715.00000
-0.99365			1.60475			16815.00000
-0.99365			1.59955			16916.00000
-0.99365			1.59512			17015.00000
-0.99365			1.59213			17115.00000
-0.99365			1.58972			17216.00000
-0.99365			1.58638			17315.00000
-0.00732			0.43602			18062.00000
-0.00732			0.08971			18164.00000
-0.00732			-0.01528			18263.00000
-0.00732			-0.02033			18364.00000
-0.00732			-0.01425			18463.00000
-0.00732			-0.00801			18563.00000
-0.00732			-0.00537			18664.00000
-0.00732			-0.00472			18763.00000
-0.00732			-0.00414			18863.00000
-0.00732			-0.00173			18964.00000
1.24268			-1.52426			19502.00000
1.24268			-1.95698			19603.00000
1.24268			-2.11355			19702.00000
1.24268			-2.11810			19802.00000
1.24268			-2.11206			19903.00000
1.24268			-2.10498			20002.00000
1.24268			-2.09972			20102.00000
1.24268			-2.09444			20203.00000
1.24268			-2.09027			20302.00000
1.24268			-2.08718			20402.00000
-1.24268			1.50657			21611.00000
-1.24268			1.87661			21712.00000
-1.24268			2.00520			21812.00000
-1.24268			2.00043			21913.00000
-1.24268			1.99268			22012.00000
-1.24268			1.98597			22112.00000
-1.24268			1.98102			22213.00000
-1.24268			1.97665			22312.00000
-1.24268			1.97127			22412.00000
-1.24268			1.96793			22513.00000
-0.00732			0.68358			23296.00000
-0.00732			0.20606			23396.00000
-0.00732			-0.02943			23497.00000
-0.00732			-0.02375			23596.00000
-0.00732			-0.01902			23697.00000
-0.00732			-0.01666			23796.00000
-0.00732			-0.01196			23896.00000
-0.00732			-0.00874			23997.00000
-0.00732			-0.00816			24096.00000
-0.00732			-0.00510			24196.00000
1.49170			-2.05473			24766.00000
1.49170			-2.44794			24867.00000
1.49170			-2.57211			24967.00000
1.49170			-2.57229			25068.00000
1.49170			-2.55183			25167.00000
1.49170			-2.54434			25267.00000
1.49170			-2.53891			25368.00000
1.49170			-2.53361			25467.00000
1.49170			-2.52802			25567.00000
1.49170			-2.52345			25668.00000
-1.49414			2.08116			26942.00000
-1.49414			2.34126			27043.00000
-1.49414			2.40631			27143.00000
-1.49414			2.39944			27244.00000
-1.49414			2.38826			27343.00000
-1.49414			2.38017			27443.00000
-1.49414			2.36906			27544.00000
-1.49414			2.36333			27643.00000
-1.49414			2.35920			27743.00000
-1.49414			2.35526			27844.00000
-0.00732			0.63828			28664.00000
-0.00732			0.18045			28764.00000
-0.00732			-0.03760			28865.00000
-0.00732			-0.03089			28964.00000
-0.00732			-0.02400			29064.00000
-0.00732			-0.02028			29165.00000
-0.00732			-0.01749			29263.00000
-0.00732			-0.01631			29364.00000
-0.00732			-0.01362			29465.00000
-0.00732			-0.00864			29564.00000
1.74072			-2.26436			30164.00000
1.74072			-3.01117			30264.00000
1.74072			-3.04447			30365.00000
1.74072			-3.03223			30464.00000
1.74072			-3.02163			30564.00000
1.74072			-3.01306			30664.00000
1.74072			-3.00692			30764.00000
1.74072			-3.00137			30865.00000
1.74072			-2.99548			30964.00000
1.74072			-2.98573			31064.00000
-1.74072			2.41158			32407.00000
-1.74072			2.70820			32508.00000
-1.74072			2.79115			32608.00000
-1.74072			2.78220			32709.00000
-1.74072			2.76900			32808.00000
-1.74072			2.75219			32908.00000
-1.74072			2.74601			33009.00000
-1.74072			2.74073			33108.00000
-1.74072			2.73620			33208.00000
-1.74072			2.73190			33309.00000
-0.00732			0.35805			34171.00000
-0.00732			0.05701			34272.00000
-0.00732			-0.03727			34373.00000
-0.00732			-0.04318			34472.00000
-0.00732			-0.03579			34572.00000
-0.00732			-0.02448			34673.00000
-0.00732			-0.02153			34772.00000
-0.00732			-0.01925			34872.00000
-0.00732			-0.01711			34973.00000
-0.00732			-0.01606			35072.00000
1.99219			-2.79184			35714.00000
1.99219			-3.49768			35816.00000
1.99219			-3.52302			35915.00000
1.99219			-3.50791			36015.00000
1.99219			-3.49645			36116.00000
1.99219			-3.48607			36215.00000
1.99219			-3.47715			36315.00000
1.99219			-3.47074			36416.00000
1.99219			-3.45920			36515.00000
1.99219			-3.45470			36615.00000
-1.99463			2.92894			38024.00000
-1.99463			3.14608			38126.00000
-1.99463			3.19323			38225.00000
-1.99463			3.18391			38325.00000
-1.99463			3.17199			38426.00000
-1.99463			3.16305			38525.00000
-1.99463			3.14754			38625.00000
-1.99463			3.14173			38726.00000
-1.99463			3.13532			38825.00000
-1.99463			3.13022			38925.00000
-0.00732			0.41878			39819.00000
-0.00732			0.07833			39921.00000
-0.00732			-0.03951			40020.00000
-0.00732			-0.04298			40120.00000
-0.00732			-0.03815			40221.00000
-0.00732			-0.03428			40320.00000
-0.00732			-0.03109			40420.00000
-0.00732			-0.02541			40521.00000
-0.00732			-0.02239			40620.00000
-0.00732			-0.01995			40721.00000
2.24121			-3.57203			41374.00000
2.24121			-3.92505			41474.00000
2.24121			-4.02052			41575.00000
2.24121			-4.01459			41674.00000
2.24121			-4.00041			41774.00000
2.24121			-3.98804			41875.00000
2.24121			-3.96969			41974.00000
2.24121			-3.96273			42074.00000
2.24121			-3.95539			42175.00000
2.24121			-3.95021			42274.00000
-2.24121			3.31034			43732.00000
-2.24121			3.54148			43832.00000
-2.24121			3.58687			43933.00000
-2.24121			3.57287			44032.00000
-2.24121			3.56081			44132.00000
-2.24121			3.54977			44232.00000
-2.24121			3.54085			44332.00000
-2.24121			3.52630			44433.00000
-2.24121			3.52047			44532.00000
-2.24121			3.51629			44632.00000
-0.00732			0.47853			45551.00000
-0.00732			0.10095			45652.00000
-0.00732			-0.05916			45752.00000
-0.00732			-0.05170			45853.00000
-0.00732			-0.04416			45952.00000
-0.00732			-0.03833			46052.00000
-0.00732			-0.03428			46153.00000
-0.00732			-0.02943			46252.00000
-0.00732			-0.02719			46352.00000
-0.00732			-0.02513			46452.00000
2.49023			-3.79043			47149.00000
2.49023			-4.51030			47250.00000
2.49023			-4.53493			47349.00000
2.49023			-4.51666			47449.00000
2.49023			-4.50120			47550.00000
2.49023			-4.48823			47649.00000
2.49023			-4.47832			47749.00000
2.49023			-4.47041			47850.00000
2.49023			-4.45606			47949.00000
2.49023			-4.45028			48049.00000
-2.49512			3.62679			49575.00000
-2.49512			3.91340			49676.00000
-2.49512			3.99790			49777.00000
-2.49512			3.99293			49876.00000
-2.49512			3.96518			49976.00000
-2.49512			3.95528			50077.00000
-2.49512			3.94836			50176.00000
-2.49512			3.94105			50276.00000
-2.49512			3.93444			50376.00000
-2.49512			3.92903			50476.00000
-0.00732			0.33312			51425.00000
-0.00732			0.03587			51526.00000
-0.00732			-0.06060			51625.00000
-0.00732			-0.06655			51725.00000
-0.00732			-0.05059			51826.00000
-0.00732			-0.04335			51925.00000
-0.00732			-0.03810			52025.00000
-0.00732			-0.03478			52126.00000
-0.00732			-0.03149			52225.00000
-0.00732			-0.03041			52326.00000
2.74170			-4.30160			53040.00000
2.74170			-5.04316			53142.00000
2.74170			-5.06990			53241.00000
2.74170			-5.05120			53341.00000
2.74170			-5.03517			53442.00000
2.74170			-5.02262			53541.00000
2.74170			-5.01217			53641.00000
2.74170			-5.00242			53742.00000
2.74170			-4.99380			53841.00000
2.74170			-4.98015			53941.00000
-2.74170			3.83440			55503.00000
-2.74170			4.23646			55604.00000
-2.74170			4.40444			55705.00000
-2.74170			4.38715			55804.00000
-2.74170			4.37284			55904.00000
-2.74170			4.36083			56005.00000
-2.74170			4.35148			56104.00000
-2.74170			4.34296			56204.00000
-2.74170			4.33512			56305.00000
-2.74170			4.32514			56404.00000
-0.00732			0.17336			57372.00000
-0.00732			-0.03388			57472.00000
-0.00732			-0.07935			57572.00000
-0.00732			-0.07384			57673.00000
-0.00732			-0.06462			57772.00000
-0.00732			-0.05597			57873.00000
-0.00732			-0.04931			57972.00000
-0.00732			-0.04195			58072.00000
-0.00732			-0.03963			58173.00000
-0.00732			-0.03848			58272.00000
2.99072			-4.93493			59006.00000
2.99072			-5.43155			59106.00000
2.99072			-5.60530			59207.00000
2.99072			-5.58276			59306.00000
2.99072			-5.56645			59406.00000
2.99072			-5.55370			59506.00000
2.99072			-5.54209			59606.00000
2.99072			-5.53214			59707.00000
2.99072			-5.52329			59806.00000
2.99072			-5.51527			59906.00000
-2.99072			4.54939			61512.00000
-2.99072			4.78506			61612.00000
-2.99072			4.83043			61713.00000
-2.99072			4.81070			61812.00000
-2.99072			4.79277			61912.00000
-2.99072			4.78101			62013.00000
-2.99072			4.77091			62112.00000
-2.99072			4.75339			62212.00000
-2.99072			4.74693			62313.00000
-2.99072			4.74019			62412.00000
-0.00732			0.37567			63410.00000
-0.00732			0.04515			63511.00000
-0.00732			-0.07568			63610.00000
-0.00732			-0.07749			63710.00000
-0.00732			-0.06834			63811.00000
-0.00732			-0.06132			63910.00000
-0.00732			-0.05572			64010.00000
-0.00732			-0.05137			64111.00000
-0.00732			-0.04793			64210.00000
-0.00732			-0.04549			64310.00000
3.24219			-5.57446			65075.00000
3.24219			-6.04401			65176.00000
3.24219			-6.20357			65275.00000
3.24219			-6.18346			65375.00000
3.24219			-6.16669			65476.00000
3.24219			-6.15247			65575.00000
3.24219			-6.13970			65675.00000
3.24219			-6.12829			65776.00000
3.24219			-6.11992			65875.00000
3.24219			-6.11145			65975.00000
-3.24219			4.75286			67629.00000
-3.24219			5.12908			67731.00000
-3.24219			5.26079			67830.00000
-3.24219			5.24113			67930.00000
-3.24219			5.22588			68031.00000
-3.24219			5.21238			68130.00000
-3.24219			5.20263			68230.00000
-3.24219			5.19257			68331.00000
-3.24219			5.18370			68430.00000
-3.24219			5.17737			68530.00000
-0.00732			0.25819			69546.00000
-0.00732			-0.01035			69648.00000
-0.00732			-0.09377			69747.00000
-0.00732			-0.09531			69847.00000
-0.00732			-0.08357			69948.00000
-0.00732			-0.06924			70047.00000
-0.00732			-0.06354			70147.00000
-0.00732			-0.05801			70248.00000
-0.00732			-0.05496			70347.00000
-0.00732			-0.05172			70447.00000
3.49121			-6.18919			71236.00000
3.49121			-6.65927			71336.00000
3.49121			-6.81342			71436.00000
3.49121			-6.78170			71537.00000
3.49121			-6.76285			71636.00000
3.49121			-6.74696			71736.00000
3.49121			-6.73419			71837.00000
3.49121			-6.72298			71936.00000
3.49121			-6.71358			72036.00000
3.49121			-6.70456			72137.00000
-3.49365			5.36319			73856.00000
-3.49365			5.64563			73956.00000
-3.49365			5.72104			74057.00000
-3.49365			5.70397			74156.00000
-3.49365			5.68245			74257.00000
-3.49365			5.65548			74356.00000
-3.49365			5.64520			74456.00000
-3.49365			5.63545			74557.00000
-3.49365			5.62768			74656.00000
-3.49365			5.61979			74756.00000
-0.00732			0.23374			75803.00000
-0.00732			-0.02335			75903.00000
-0.00732			-0.10199			76003.00000
-0.00732			-0.10179			76104.00000
-0.00732			-0.08271			76203.00000
-0.00732			-0.07537			76304.00000
-0.00732			-0.06962			76403.00000
-0.00732			-0.06474			76503.00000
-0.00732			-0.06150			76604.00000
-0.00732			-0.05881			76703.00000
3.74023			-7.16689			77522.00000
3.74023			-7.42342			77623.00000
3.74023			-7.46567			77724.00000
3.74023			-7.44179			77823.00000
3.74023			-7.41847			77923.00000
3.74023			-7.40123			78024.00000
3.74023			-7.38594			78123.00000
3.74023			-7.36006			78224.00000
3.74023			-7.35083			78323.00000
3.74023			-7.34206			78423.00000
-3.74268			5.86318			80187.00000
-3.74268			6.12817			80288.00000
-3.74268			6.19207			80388.00000
-3.74268			6.17299			80489.00000
-3.74268			6.15132			80588.00000
-3.74268			6.12428			80688.00000
-3.74268			6.11264			80789.00000
-3.74268			6.10259			80888.00000
-3.74268			6.09366			80988.00000
-3.74268			6.08494			81089.00000
-0.00732			0.30726			82165.00000
-0.00732			0.00905			82265.00000
-0.00732			-0.11491			82366.00000
-0.00732			-0.10390			82465.00000
-0.00732			-0.09350			82565.00000
-0.00732			-0.08601			82666.00000
-0.00732			-0.07859			82765.00000
-0.00732			-0.07369			82865.00000
-0.00732			-0.07000			82966.00000
-0.00732			-0.06090			83065.00000
3.99170			-7.54771			83890.00000
3.99170			-8.00203			83992.00000
3.99170			-8.13356			84091.00000
3.99170			-8.11551			84191.00000
3.99170			-8.08724			84292.00000
3.99170			-8.04760			84391.00000
3.99170			-8.03264			84491.00000
3.99170			-8.02025			84592.00000
3.99170			-8.00821			84691.00000
3.99170			-7.99786			84791.00000
-3.99170			6.39541			86592.00000
-3.99170			6.63764			86692.00000
-3.99170			6.68099			86792.00000
-3.99170			6.65706			86893.00000
-3.99170			6.63510			86992.00000
-3.99170			6.61976			87092.00000
-3.99170			6.60614			87193.00000
-3.99170			6.58392			87292.00000
-3.99170			6.57543			87392.00000
-3.99170			6.56588			87493.00000
-0.00732			0.27752			88569.00000
-0.00732			-0.01656			88669.00000
-0.00732			-0.11991			88771.00000
-0.00732			-0.12379			88870.00000
-0.00732			-0.09935			88970.00000
-0.00732			-0.09073			89071.00000
-0.00732			-0.08452			89170.00000
-0.00732			-0.08010			89270.00000
-0.00732			-0.07580			89371.00000
-0.00732			-0.07196			89470.00000
4.24072			-8.20929			90326.00000
4.24072			-8.67537			90427.00000
4.24072			-8.82100			90526.00000
4.24072			-8.81429			90626.00000
4.24072			-8.76352			90727.00000
4.24072			-8.74381			90826.00000
4.24072			-8.72720			90926.00000
4.24072			-8.71453			91027.00000
4.24072			-8.70134			91126.00000
4.24072			-8.68892			91226.00000
-4.24316			6.58133			93082.00000
-4.24316			7.01413			93182.00000
-4.24316			7.17766			93282.00000
-4.24316			7.15067			93383.00000
-4.24316			7.13189			93482.00000
-4.24316			7.11560			93582.00000
-4.24316			7.10271			93682.00000
-4.24316			7.09183			93782.00000
-4.24316			7.08044			93883.00000
-4.24316			7.06146			93982.00000
-0.00732			0.24648			95090.00000
-0.00732			-0.03182			95191.00000
-0.00732			-0.12748			95292.00000
-0.00732			-0.11891			95391.00000
-0.00732			-0.10818			95491.00000
-0.00732			-0.09948			95592.00000
-0.00732			-0.09194			95691.00000
-0.00732			-0.08603			95791.00000
-0.00732			-0.08211			95892.00000
-0.00732			-0.07754			95991.00000
4.49219			-8.69983			96853.00000
4.49219			-9.33041			96955.00000
4.49219			-9.55115			97054.00000
4.49219			-9.51410			97154.00000
4.49219			-9.48806			97255.00000
4.49219			-9.46712			97354.00000
4.49219			-9.44951			97454.00000
4.49219			-9.43352			97555.00000
4.49219			-9.41952			97654.00000
4.49219			-9.40713			97754.00000
-4.49463			7.36896			99627.00000
-4.49463			7.67214			99729.00000
-4.49463			7.73229			99828.00000
-4.49463			7.70587			99928.00000
-4.49463			7.68157			100029.00000
-4.49463			7.66337			100128.00000
-4.49463			7.63600			100228.00000
-4.49463			7.62336			100329.00000
-4.49463			7.61222			100428.00000
-4.49463			7.60234			100528.00000
-0.00732			0.09084			101648.00000
-0.00732			-0.10164			101749.00000
-0.00732			-0.14294			101849.00000
-0.00732			-0.13339			101950.00000
-0.00732			-0.12044			102049.00000
-0.00732			-0.10973			102149.00000
-0.00732			-0.10448			102250.00000
-0.00732			-0.09297			102349.00000
-0.00732			-0.08611			102449.00000
-0.00732			-0.08148			102550.00000
4.74121			-9.65262			103441.00000
4.74121			-10.16542			103542.00000
4.74121			-10.32302			103642.00000
4.74121			-10.31354			103743.00000
4.74121			-10.25345			103842.00000
4.74121			-10.23178			103942.00000
4.74121			-10.21243			104043.00000
4.74121			-10.19632			104142.00000
4.74121			-10.18028			104242.00000
4.74121			-10.16635			104343.00000
-4.74365			7.71163			106270.00000
-4.74365			8.13455			106370.00000
-4.74365			8.27749			106471.00000
-4.74365			8.24044			106570.00000
-4.74365			8.21988			106670.00000
-4.74365			8.20209			106771.00000
-4.74365			8.18756			106870.00000
-4.74365			8.17401			106970.00000
-4.74365			8.16162			107071.00000
-4.74365			8.15177			107170.00000
-0.00732			0.00126			108326.00000
-0.00732			-0.12916			108427.00000
-0.00732			-0.14950			108528.00000
-0.00732			-0.13648			108627.00000
-0.00732			-0.12519			108727.00000
-0.00732			-0.11657			108828.00000
-0.00732			-0.10943			108927.00000
-0.00732			-0.10182			109027.00000
-0.00732			-0.09131			109128.00000
-0.00732			-0.08616			109227.00000
4.99268			-10.37497			110132.00000
4.99268			-10.95323			110233.00000
4.99268			-11.12784			110332.00000
4.99268			-11.10251			110432.00000
4.99268			-11.03510			110533.00000
4.99268			-11.01064			110632.00000
4.99268			-10.99046			110732.00000
4.99268			-10.97269			110833.00000
4.99268			-10.95678			110932.00000
4.99268			-10.94167			111032.00000
-4.99512			8.58580			112990.00000
-4.99512			8.83876			113092.00000
-4.99512			8.87840			113191.00000
-4.99512			8.84758			113291.00000
-4.99512			8.82312			113392.00000
-4.99512			8.80359			113491.00000
-4.99512			8.78653			113591.00000
-4.99512			8.77245			113692.00000
-4.99512			8.74810			113791.00000
-4.99512			8.73762			113891.00000
-0.00732			0.14524			115060.00000
-0.00732			-0.08747			115161.00000
-0.00732			-0.15855			115262.00000
-0.00732			-0.15425			115361.00000
-0.00732			-0.12962			115461.00000
-0.00732			-0.11921			115562.00000
-0.00732			-0.11202			115661.00000
-0.00732			-0.10682			115761.00000
-0.00732			-0.10089			115862.00000
-0.00732			-0.09697			115961.00000
5.24414			-11.40252			116890.00000
5.24414			-11.86000			116991.00000
5.24414			-11.97573			117091.00000
5.24414			-11.94823			117192.00000
5.24414			-11.90934			117291.00000
5.24414			-11.85495			117392.00000
5.24414			-11.83313			117491.00000
5.24414			-11.81428			117591.00000
5.24414			-11.79646			117692.00000
5.24414			-11.78022			117791.00000
-5.24414			9.08018			119792.00000
-5.24414			9.40955			119893.00000
-5.24414			9.48553			119993.00000
-5.24414			9.45303			120093.00000
-5.24414			9.42388			120193.00000
-5.24414			9.40256			120294.00000
-5.24414			9.36918			120393.00000
-5.24414			9.35443			120493.00000
-5.24414			9.34312			120594.00000
-5.24414			9.33168			120693.00000
-0.00732			-0.01098			121880.00000
-0.00732			-0.14746			121980.00000
-0.00732			-0.16918			122080.00000
-0.00732			-0.15475			122181.00000
-0.00732			-0.14201			122280.00000
-0.00732			-0.13218			122380.00000
-0.00732			-0.12394			122481.00000
-0.00732			-0.11730			122580.00000
-0.00732			-0.10614			122680.00000
-0.00732			-0.10058			122781.00000
5.49072			-12.44361			123727.00000
5.49072			-12.78708			123828.00000
5.49072			-12.82639			123929.00000
5.49072			-12.77590			124028.00000
5.49072			-12.73794			124128.00000
5.49072			-12.70773			124229.00000
5.49072			-12.68229			124328.00000
5.49072			-12.66088			124428.00000
5.49072			-12.62325			124529.00000
5.49072			-12.60704			124628.00000
-5.49316			9.68563			126660.00000
-5.49316			10.03757			126761.00000
-5.49316			10.12522			126861.00000
-5.49316			10.09013			126962.00000
-5.49316			10.05645			127061.00000
-5.49316			10.01543			127161.00000
-5.49316			9.99856			127262.00000
-5.49316			9.98366			127361.00000
-5.49316			9.97072			127462.00000
-5.49316			9.95852			127561.00000
-0.00732			0.04246			128766.00000
-0.00732			-0.13422			128867.00000
-0.00732			-0.17735			128968.00000
-0.00732			-0.16757			129067.00000
-0.00732			-0.15226			129168.00000
-0.00732			-0.14090			129267.00000
-0.00732			-0.12522			129367.00000
-0.00732			-0.11969			129468.00000
-0.00732			-0.11318			129567.00000
-0.00732			-0.10740			129667.00000
5.74219			-13.00332			130645.00000
5.74219			-13.57529			130747.00000
5.74219			-13.75224			130846.00000
5.74219			-13.68888			130946.00000
5.74219			-13.65356			131047.00000
5.74219			-13.62348			131146.00000
5.74219			-13.59844			131246.00000
5.74219			-13.57692			131347.00000
5.74219			-13.55564			131446.00000
5.74219			-13.53689			131546.00000
-5.74463			10.35656			133615.00000
-5.74463			10.71340			133716.00000
-5.74463			10.80942			133816.00000
-5.74463			10.77642			133917.00000
-5.74463			10.74143			134016.00000
-5.74463			10.69712			134116.00000
-5.74463			10.67839			134217.00000
-5.74463			10.66228			134316.00000
-5.74463			10.64778			134417.00000
-5.74463			10.63548			134516.00000
-0.00732			0.09821			135746.00000
-0.00732			-0.11381			135846.00000
-0.00732			-0.18222			135946.00000
-0.00732			-0.17745			136047.00000
-0.00732			-0.15096			136146.00000
-0.00732			-0.14058			136246.00000
-0.00732			-0.13193			136347.00000
-0.00732			-0.12607			136446.00000
-0.00732			-0.12067			136546.00000
-0.00732			-0.11464			136647.00000
5.99121			-13.48737			137630.00000
5.99121			-14.68513			137731.00000
5.99121			-14.69961			137832.00000
5.99121			-14.64202			137931.00000
5.99121			-14.60002			138031.00000
5.99121			-14.56647			138132.00000
5.99121			-14.53907			138231.00000
5.99121			-14.51368			138331.00000
5.99121			-14.46894			138432.00000
5.99121			-14.45087			138531.00000
-5.99365			10.53479			140624.00000
-5.99365			11.49390			140724.00000
-5.99365			11.52446			140825.00000
-5.99365			11.48218			140924.00000
-5.99365			11.45097			141024.00000
-5.99365			11.42656			141125.00000
-5.99365			11.40542			141224.00000
-5.99365			11.38700			141324.00000
-5.99365			11.35711			141425.00000
-5.99365			11.34371			141524.00000
-0.00732			0.01672			142760.00000
-0.00732			-0.15510			142861.00000
-0.00732			-0.19406			142962.00000
-0.00732			-0.18185			143061.00000
-0.00732			-0.16408			143161.00000
-0.00732			-0.15196			143262.00000
-0.00732			-0.13567			143361.00000
-0.00732			-0.12881			143462.00000
-0.00732			-0.12328			143561.00000
-0.00732			-0.11979			143660.00000
6.24268			-14.60643			144657.00000
6.24268			-15.42900			144758.00000
6.24268			-15.72295			144858.00000
6.24268			-15.66627			144959.00000
6.24268			-15.62178			145058.00000
6.24268			-15.58511			145158.00000
6.24268			-15.55472			145259.00000
6.24268			-15.52816			145358.00000
6.24268			-15.50350			145458.00000
6.24268			-15.46205			145559.00000
-6.24268			11.83684			147688.00000
-6.24268			12.21195			147788.00000
-6.24268			12.28678			147888.00000
-6.24268			12.24684			147989.00000
-6.24268			12.21092			148088.00000
-6.24268			12.18368			148188.00000
-6.24268			12.14110			148289.00000
-6.24268			12.12365			148388.00000
-6.24268			12.10810			148488.00000
-6.24268			12.09332			148589.00000
-0.00732			0.13835			149841.00000
-0.00732			-0.11170			149942.00000
-0.00732			-0.19665			150043.00000
-0.00732			-0.17891			150142.00000
-0.00732			-0.16568			150242.00000
-0.00732			-0.15319			150343.00000
-0.00732			-0.14480			150442.00000
-0.00732			-0.13811			150542.00000
-0.00732			-0.13231			150643.00000
-0.00732			-0.12678			150742.00000
6.49170			-15.95912			151768.00000
6.49170			-16.59853			151870.00000
6.49170			-16.78415			151969.00000
6.49170			-16.68419			152069.00000
6.49170			-16.64008			152170.00000
6.49170			-16.60248			152269.00000
6.49170			-16.57128			152369.00000
6.49170			-16.54344			152470.00000
6.49170			-16.51951			152569.00000
6.49170			-16.49699			152669.00000
-6.49170			12.44903			154847.00000
-6.49170			12.93102			154949.00000
-6.49170			13.08052			155048.00000
-6.49170			13.01999			155148.00000
-6.49170			12.98822			155249.00000
-6.49170			12.96349			155348.00000
-6.49170			12.94150			155448.00000
-6.49170			12.92126			155549.00000
-6.49170			12.90342			155648.00000
-6.49170			12.88788			155748.00000
-0.00732			0.00342			157034.00000
-0.00732			-0.16295			157134.00000
-0.00732			-0.20575			157234.00000
-0.00732			-0.19605			157335.00000
-0.00732			-0.18114			157434.00000
-0.00732			-0.15953			157534.00000
-0.00732			-0.15050			157635.00000
-0.00732			-0.14228			157734.00000
-0.00732			-0.13565			157834.00000
-0.00732			-0.12916			157935.00000
6.74072			-17.10669			158973.00000
6.74072			-17.72797			159073.00000
6.74072			-17.90100			159174.00000
6.74072			-17.85918			159273.00000
6.74072			-17.75122			159373.00000
6.74072			-17.71279			159474.00000
6.74072			-17.67768			159573.00000
6.74072			-17.64706			159673.00000
6.74072			-17.62087			159774.00000
6.74072			-17.59679			159873.00000
-6.74072			13.00775			162081.00000
-6.74072			13.65905			162182.00000
-6.74072			13.89670			162283.00000
-6.74072			13.84337			162382.00000
-6.74072			13.80833			162482.00000
-6.74072			13.78078			162583.00000
-6.74072			13.75698			162682.00000
-6.74072			13.73529			162782.00000
-6.74072			13.71611			162883.00000
-6.74072			13.68323			162982.00000
-0.00732			0.09253			164267.00000
-0.00732			-0.13442			164368.00000
-0.00732			-0.21040			164467.00000
-0.00732			-0.19092			164567.00000
-0.00732			-0.17710			164668.00000
-0.00732			-0.16656			164767.00000
-0.00732			-0.15837			164867.00000
-0.00732			-0.14814			164968.00000
-0.00732			-0.14007			165067.00000
-0.00732			-0.13517			165167.00000
6.99219			-17.84736			166219.00000
6.99219			-18.72895			166319.00000
6.99219			-19.03834			166420.00000
6.99219			-18.96371			166519.00000
6.99219			-18.90947			166619.00000
6.99219			-18.86473			166720.00000
6.99219			-18.82753			166819.00000
6.99219			-18.79455			166919.00000
6.99219			-18.76404			167020.00000
6.99219			-18.71226			167119.00000
-6.99463			14.15371			169357.00000
-6.99463			14.66895			169459.00000
-6.99463			14.82562			169559.00000
-6.99463			14.79903			169659.00000
-6.99463			14.71962			169758.00000
-6.99463			14.69072			169858.00000
-6.99463			14.66511			169959.00000
-6.99463			14.64266			170058.00000
-6.99463			14.62336			170158.00000
-6.99463			14.60541			170259.00000
-0.00732			0.04879			171579.00000
-0.00732			-0.14932			171680.00000
-0.00732			-0.21731			171780.00000
-0.00732			-0.19602			171881.00000
-0.00732			-0.18149			171980.00000
-0.00732			-0.17018			172080.00000
-0.00732			-0.16111			172181.00000
-0.00732			-0.15246			172280.00000
-0.00732			-0.14553			172380.00000
-0.00732			-0.14010			172481.00000
7.24121			-19.77163			173549.00000
7.24121			-20.21707			173650.00000
7.24121			-20.27659			173750.00000
7.24121			-20.20832			173851.00000
7.24121			-20.14611			173950.00000
7.24121			-20.09614			174050.00000
7.24121			-20.05404			174151.00000
7.24121			-19.98376			174250.00000
7.24121			-19.95473			174350.00000
7.24121			-19.92749			174450.00000
-7.24121			15.23874			176731.00000
-7.24121			15.66196			176833.00000
-7.24121			15.75008			176932.00000
-7.24121			15.69599			177032.00000
-7.24121			15.64799			177133.00000
-7.24121			15.61212			177232.00000
-7.24121			15.55743			177332.00000
-7.24121			15.53573			177433.00000
-7.24121			15.51527			177533.00000
-7.24121			15.49617			177632.00000
-0.00732			0.01079			178953.00000
-0.00732			-0.17380			179055.00000
-0.00732			-0.22787			179154.00000
-0.00732			-0.21927			179254.00000
-0.00732			-0.18848			179355.00000
-0.00732			-0.17752			179454.00000
-0.00732			-0.16835			179554.00000
-0.00732			-0.15920			179655.00000
-0.00732			-0.15183			179754.00000
-0.00732			-0.14621			179854.00000
7.49023			-21.04559			180935.00000
7.49023			-21.51803			181035.00000
7.49023			-21.55825			181136.00000
7.49023			-21.46651			181235.00000
7.49023			-21.39841			181335.00000
7.49023			-21.34525			181436.00000
7.49023			-21.30127			181535.00000
7.49023			-21.22745			181635.00000
7.49023			-21.19507			181736.00000
7.49023			-21.16539			181835.00000
-7.49512			16.12575			184129.00000
-7.49512			16.63132			184229.00000
-7.49512			16.76071			184329.00000
-7.49512			16.71499			184430.00000
-7.49512			16.66515			184529.00000
-7.49512			16.59467			184629.00000
-7.49512			16.56685			184730.00000
-7.49512			16.54153			184829.00000
-7.49512			16.51869			184929.00000
-7.49512			16.49881			185030.00000
-0.00732			0.08240			186374.00000
-0.00732			-0.14251			186475.00000
-0.00732			-0.23036			186574.00000
-0.00732			-0.21118			186674.00000
-0.00732			-0.19632			186775.00000
-0.00732			-0.18358			186874.00000
-0.00732			-0.17478			186974.00000
-0.00732			-0.16531			187075.00000
-0.00732			-0.15789			187174.00000
-0.00732			-0.14558			187274.00000
7.74170			-21.85917			188368.00000
7.74170			-22.67739			188469.00000
7.74170			-22.92619			188570.00000
7.74170			-22.87831			188669.00000
7.74170			-22.73117			188769.00000
7.74170			-22.67796			188870.00000
7.74170			-22.63305			188969.00000
7.74170			-22.59263			189069.00000
7.74170			-22.55611			189170.00000
7.74170			-22.52291			189269.00000
-7.74414			17.12977			191606.00000
-7.74414			17.67228			191707.00000
-7.74414			17.80771			191808.00000
-7.74414			17.75028			191907.00000
-7.74414			17.69478			192007.00000
-7.74414			17.61988			192108.00000
-7.74414			17.59077			192207.00000
-7.74414			17.56433			192307.00000
-7.74414			17.54020			192408.00000
-7.74414			17.51876			192507.00000
-0.00732			-0.12803			193871.00000
-0.00732			-0.22719			193971.00000
-0.00732			-0.23873			194072.00000
-0.00732			-0.21990			194171.00000
-0.00732			-0.20404			194271.00000
-0.00732			-0.18989			194372.00000
-0.00732			-0.17798			194471.00000
-0.00732			-0.16191			194571.00000
-0.00732			-0.15525			194672.00000
-0.00732			-0.14935			194771.00000
7.98828			-22.71408			195877.00000
7.98828			-24.30812			195978.00000
7.98828			-24.30166			196079.00000
7.98828			-24.19496			196178.00000
7.98828			-24.12079			196278.00000
7.98828			-24.05999			196379.00000
7.98828			-24.00997			196478.00000
7.98828			-23.96563			196578.00000
7.98828			-23.92592			196679.00000
7.98828			-23.85725			196778.00000
-7.99072			17.77906			199121.00000
-7.99072			18.60085			199222.00000
-7.99072			18.88067			199323.00000
-7.99072			18.80798			199422.00000
-7.99072			18.75990			199522.00000
-7.99072			18.72162			199623.00000
-7.99072			18.68867			199722.00000
-7.99072			18.65916			199822.00000
-7.99072			18.63297			199922.00000
-7.99072			18.60912			200022.00000
-0.00732			-0.02478			201386.00000
-0.00732			-0.19808			201486.00000
-0.00732			-0.24808			201587.00000
-0.00732			-0.23647			201686.00000
-0.00732			-0.20130			201787.00000
-0.00732			-0.19017			201886.00000
-0.00732			-0.17941			201986.00000
-0.00732			-0.17109			202087.00000
-0.00732			-0.16438			202186.00000
-0.00732			-0.15691			202286.00000
8.24219			-24.73278			203423.00000
8.24219			-25.58199			203524.00000
8.24219			-25.84789			203625.00000
8.24219			-25.70321			203724.00000
8.24219			-25.62929			203824.00000
8.24219			-25.56831			203925.00000
8.24219			-25.51523			204024.00000
8.24219			-25.46898			204124.00000
8.24219			-25.42791			204225.00000
8.24219			-25.39083			204324.00000
-8.24463			18.82249			206709.00000
-8.24463			20.05554			206810.00000
-8.24463			20.07187			206911.00000
-8.24463			19.99398			207010.00000
-8.24463			19.93991			207110.00000
-8.24463			19.89761			207211.00000
-8.24463			19.86212			207310.00000
-8.24463			19.83075			207410.00000
-8.24463			19.77619			207511.00000
-8.24463			19.75291			207610.00000
-0.00732			-0.14530			209005.00000
-0.00732			-0.23805			209105.00000
-0.00732			-0.24702			209205.00000
-0.00732			-0.22666			209306.00000
-0.00732			-0.20904			209405.00000
-0.00732			-0.19688			209504.00000
-0.00732			-0.18567			209606.00000
-0.00732			-0.16920			209705.00000
-0.00732			-0.16199			209805.00000
-0.00732			-0.15616			209906.00000
8.49121			-26.64555			211041.00000
8.49121			-27.34848			211143.00000
8.49121			-27.44811			211242.00000
8.49121			-27.32739			211342.00000
8.49121			-27.23172			211443.00000
8.49121			-27.15848			211542.00000
8.49121			-27.04276			211643.00000
8.49121			-26.99455			211742.00000
8.49121			-26.95119			211842.00000
8.49121			-26.91183			211943.00000
-8.49121			20.04506			214351.00000
-8.49121			20.99415			214452.00000
-8.49121			21.32244			214553.00000
-8.49121			21.23351			214652.00000
-8.49121			21.17854			214752.00000
-8.49121			21.13355			214853.00000
-8.49121			21.09404			214952.00000
-8.49121			21.06056			215052.00000
-8.49121			21.02962			215153.00000
-8.49121			20.97852			215252.00000
-0.00732			0.06676			216647.00000
-0.00732			-0.25004			216747.00000
-0.00732			-0.25119			216848.00000
-0.00732			-0.23078			216947.00000
-0.00732			-0.21470			217047.00000
-0.00732			-0.20112			217148.00000
-0.00732			-0.19022			217247.00000
-0.00732			-0.17986			217347.00000
-0.00732			-0.17064			217448.00000
-0.00732			-0.15659			217547.00000
8.74268			-28.27473			218708.00000
8.74268			-29.01799			218808.00000
8.74268			-29.16973			218909.00000
8.74268			-29.06334			219008.00000
8.74268			-28.96043			219108.00000
8.74268			-28.88121			219208.00000
8.74268			-28.75503			219308.00000
8.74268			-28.70421			219409.00000
8.74268			-28.65808			219508.00000
8.74268			-28.61528			219608.00000
-8.74512			21.80750			222067.00000
-8.74512			22.50801			222167.00000
-8.74512			22.70007			222268.00000
-8.74512			22.61938			222367.00000
-8.74512			22.48317			222467.00000
-8.74512			22.43806			222568.00000
-8.74512			22.39907			222667.00000
-8.74512			22.36537			222767.00000
-8.74512			22.33440			222868.00000
-8.74512			22.30577			222967.00000
-0.00732			0.01325			224386.00000
-0.00732			-0.18670			224487.00000
-0.00732			-0.25574			224586.00000
-0.00732			-0.23533			224686.00000
-0.00732			-0.21729			224787.00000
-0.00732			-0.20452			224886.00000
-0.00732			-0.19283			224986.00000
-0.00732			-0.18273			225087.00000
-0.00732			-0.17446			225186.00000
-0.00732			-0.16217			225286.00000
8.98926			-29.87832			226448.00000
8.98926			-30.79044			226547.00000
8.98926			-30.97559			226647.00000
8.98926			-30.83722			226748.00000
8.98926			-30.72139			226847.00000
8.98926			-30.63403			226947.00000
8.98926			-30.49759			227048.00000
8.98926			-30.44207			227147.00000
8.98926			-30.39308			227247.00000
8.98926			-30.34844			227348.00000
-8.99414			23.03869			229805.00000
-8.99414			23.88385			229906.00000
-8.99414			24.11964			230005.00000
-8.99414			24.03167			230105.00000
-8.99414			23.94437			230206.00000
-8.99414			23.83687			230305.00000
-8.99414			23.79347			230405.00000
-8.99414			23.75521			230506.00000
-8.99414			23.72163			230605.00000
-8.99414			23.69267			230705.00000
-0.00732			0.02951			232124.00000
-0.00732			-0.18574			232225.00000
-0.00732			-0.25992			232325.00000
-0.00732			-0.23888			232426.00000
-0.00732			-0.22274			232525.00000
-0.00732			-0.21022			232625.00000
-0.00732			-0.19776			232726.00000
-0.00732			-0.18788			232825.00000
-0.00732			-0.17903			232925.00000
-0.00732			-0.16717			233026.00000
9.24072			-31.49377			234222.00000
9.24072			-32.55225			234322.00000
9.24072			-32.88258			234422.00000
9.24072			-32.66976			234523.00000
9.24072			-32.57048			234622.00000
9.24072			-32.48947			234722.00000
9.24072			-32.41801			234823.00000
9.24072			-32.35570			234922.00000
9.24072			-32.30179			235022.00000
9.24072			-32.25290			235122.00000
-9.24072			24.49101			237653.00000
-9.24072			25.33557			237755.00000
-9.24072			25.60527			237854.00000
-9.24072			25.42023			237954.00000
-9.24072			25.35503			238055.00000
-9.24072			25.30202			238154.00000
-9.24072			25.25605			238254.00000
-9.24072			25.21568			238355.00000
-9.24072			25.17943			238454.00000
-9.24072			25.14746			238554.00000
-0.00732			-0.13517			239991.00000
-0.00732			-0.25051			240092.00000
-0.00732			-0.26927			240192.00000
-0.00732			-0.25180			240292.00000
-0.00732			-0.23302			240392.00000
-0.00732			-0.21799			240493.00000
-0.00732			-0.19459			240592.00000
-0.00732			-0.18509			240692.00000
-0.00732			-0.17848			240793.00000
-0.00732			-0.17006			240892.00000
9.49219			-34.13227			242089.00000
9.49219			-34.85769			242190.00000
9.49219			-34.88868			242291.00000
9.49219			-34.70665			242390.00000
9.49219			-34.58545			242491.00000
9.49219			-34.49011			242590.00000
9.49219			-34.40931			242690.00000
9.49219			-34.27584			242791.00000
9.49219			-34.22001			242890.00000
9.49219			-34.16949			242990.00000
-9.49463			26.61238			245515.00000
-9.49463			27.15937			245617.00000
-9.49463			27.18418			245716.00000
-9.49463			27.05446			245816.00000
-9.49463			26.97410			245917.00000
-9.49463			26.91184			246016.00000
-9.49463			26.85908			246116.00000
-9.49463			26.81228			246217.00000
-9.49463			26.73421			246316.00000
-9.49463			26.70138			246417.00000
-0.00732			-0.02558			247865.00000
-0.00732			-0.21080			247966.00000
-0.00732			-0.27289			248065.00000
-0.00732			-0.24297			248166.00000
-0.00732			-0.22586			248265.00000
-0.00732			-0.21183			248365.00000
-0.00732			-0.20014			248466.00000
-0.00732			-0.18987			248565.00000
-0.00732			-0.18232			248665.00000
-0.00732			-0.17436			248766.00000
9.74121			-35.26877			249980.00000
9.74121			-36.63011			250081.00000
9.74121			-36.98519			250182.00000
9.74121			-36.82440			250281.00000
9.74121			-36.70549			250381.00000
9.74121			-36.60749			250482.00000
9.74121			-36.52351			250581.00000
9.74121			-36.45127			250681.00000
9.74121			-36.38595			250782.00000
9.74121			-36.32625			250881.00000
-9.74121			28.23693			253443.00000
-9.74121			28.81876			253545.00000
-9.74121			28.85734			253644.00000
-9.74121			28.71342			253744.00000
-9.74121			28.62245			253845.00000
-9.74121			28.55434			253944.00000
-9.74121			28.49791			254044.00000
-9.74121			28.40506			254145.00000
-9.74121			28.36464			254244.00000
-9.74121			28.32898			254344.00000
-0.00732			0.02592			255806.00000
-0.00732			-0.27374			255907.00000
-0.00732			-0.27510			256007.00000
-0.00732			-0.25275			256108.00000
-0.00732			-0.23217			256207.00000
-0.00732			-0.21658			256307.00000
-0.00732			-0.20578			256408.00000
-0.00732			-0.19738			256507.00000
-0.00732			-0.17850			256607.00000
-0.00732			-0.17257			256708.00000
9.99268			-38.38777			257941.00000
9.99268			-39.21029			258041.00000
9.99268			-39.28781			258141.00000
9.99268			-39.06024			258242.00000
9.99268			-38.90815			258341.00000
9.99268			-38.79429			258441.00000
9.99268			-38.61595			258542.00000
9.99268			-38.54286			258641.00000
9.99268			-38.47648			258741.00000
9.99268			-38.41580			258842.00000
-9.99512			29.13855			261421.00000
-9.99512			30.26143			261522.00000
-9.99512			30.59312			261621.00000
-9.99512			30.44625			261721.00000
-9.99512			30.36074			261822.00000
-9.99512			30.29157			261921.00000
-9.99512			30.23240			262021.00000
-9.99512			30.18236			262122.00000
-9.99512			30.13598			262221.00000
-9.99512			30.05696			262321.00000
-0.00732			-0.02702			263807.00000
-0.00732			-0.27728			263907.00000
-0.00732			-0.27329			264008.00000
-0.00732			-0.25310			264107.00000
-0.00732			-0.23463			264208.00000
-0.00732			-0.22005			264307.00000
-0.00732			-0.20748			264407.00000
-0.00732			-0.19610			264508.00000
-0.00732			-0.18562			264607.00000
-0.00732			-0.17006			264707.00000
10.24170			-40.67026			265941.00000
10.24170			-41.61916			266043.00000
10.24170			-41.72091			266142.00000
10.24170			-41.51512			266242.00000
10.24170			-41.35336			266343.00000
10.24170			-41.22705			266442.00000
10.24170			-41.12071			266542.00000
10.24170			-40.94790			266643.00000
10.24170			-40.87557			266742.00000
10.24170			-40.81014			266842.00000
-10.24170			31.83524			269447.00000
-10.24170			32.48425			269548.00000
-10.24170			32.49377			269647.00000
-10.24170			32.32132			269747.00000
-10.24170			32.21807			269848.00000
-10.24170			32.13932			269947.00000
-10.24170			32.07254			270047.00000
-10.24170			32.01364			270148.00000
-10.24170			31.91592			270247.00000
-10.24170			31.87394			270347.00000
-0.00732			-0.17039			271833.00000
-0.00732			-0.27103			271934.00000
-0.00732			-0.28088			272033.00000
-0.00732			-0.25992			272133.00000
-0.00732			-0.24107			272234.00000
-0.00732			-0.22508			272333.00000
-0.00732			-0.20922			272432.00000
-0.00732			-0.18934			272534.00000
-0.00732			-0.18162			272633.00000
-0.00732			-0.17322			272733.00000
10.49072			-42.28720			273980.00000
10.49072			-43.76033			274081.00000
10.49072			-44.15465			274181.00000
10.49072			-43.90091			274282.00000
10.49072			-43.52128			274381.00000
10.49072			-43.40042			274481.00000
10.49072			-43.29767			274582.00000
10.49072			-43.20668			274681.00000
10.49072			-43.12577			274781.00000
10.49072			-43.05421			274882.00000
-10.49072			32.25834			277528.00000
-10.49072			34.45144			277629.00000
-10.49072			34.42495			277729.00000
-10.49072			34.23515			277830.00000
-10.49072			34.12594			277929.00000
-10.49072			34.04066			278029.00000
-10.49072			33.96807			278130.00000
-10.49072			33.90586			278229.00000
-10.49072			33.80235			278329.00000
-10.49072			33.75787			278430.00000
-0.00732			-0.16659			279921.00000
-0.00732			-0.26979			280022.00000
-0.00732			-0.28108			280123.00000
-0.00732			-0.25750			280222.00000
-0.00732			-0.23586			280322.00000
-0.00732			-0.21932			280423.00000
-0.00732			-0.20585			280522.00000
-0.00732			-0.18793			280622.00000
-0.00732			-0.17795			280723.00000
-0.00732			-0.17011			280822.00000
10.74219			-44.52374			282092.00000
10.74219			-46.16930			282193.00000
10.74219			-46.61183			282293.00000
10.74219			-46.38267			282394.00000
10.74219			-46.21701			282493.00000
10.74219			-46.08133			282593.00000
10.74219			-45.96422			282694.00000
10.74219			-45.86285			282793.00000
10.74219			-45.77393			282893.00000
10.74219			-45.61907			282994.00000
-10.74219			35.07187			285690.00000
-10.74219			36.18875			285790.00000
-10.74219			36.50301			285891.00000
-10.74219			36.16163			285990.00000
-10.74219			36.05706			286090.00000
-10.74219			35.97188			286191.00000
-10.74219			35.89806			286290.00000
-10.74219			35.83329			286390.00000
-10.74219			35.77533			286491.00000
-10.74219			35.72465			286590.00000
-0.00732			-0.17871			288113.00000
-0.00732			-0.26869			288214.00000
-0.00732			-0.27799			288315.00000
-0.00732			-0.25738			288414.00000
-0.00732			-0.23513			288514.00000
-0.00732			-0.21829			288615.00000
-0.00732			-0.19379			288714.00000
-0.00732			-0.18421			288814.00000
-0.00732			-0.17328			288915.00000
-0.00732			-0.16546			289014.00000
10.98877			-46.44923			290290.00000
10.98877			-49.42383			290391.00000
10.98877			-49.31060			290492.00000
10.98877			-48.99186			290591.00000
10.98877			-48.79880			290691.00000
10.98877			-48.64683			290792.00000
10.98877			-48.51864			290891.00000
10.98877			-48.40750			290991.00000
10.98877			-48.21974			291092.00000
10.98877			-48.13893			291191.00000
-10.99121			36.61205			293882.00000
-10.99121			38.10710			293982.00000
-10.99121			38.47752			294083.00000
-10.99121			38.25849			294182.00000
-10.99121			38.13608			294282.00000
-10.99121			38.03805			294383.00000
-10.99121			37.95602			294482.00000
-10.99121			37.88451			294582.00000
-10.99121			37.82031			294683.00000
-10.99121			37.71105			294782.00000
-0.00732			-0.13462			296317.00000
-0.00732			-0.25283			296417.00000
-0.00732			-0.28075			296518.00000
-0.00732			-0.26250			296617.00000
-0.00732			-0.22186			296717.00000
-0.00732			-0.20668			296818.00000
-0.00732			-0.19306			296917.00000
-0.00732			-0.18260			297017.00000
-0.00732			-0.17302			297118.00000
-0.00732			-0.16498			297217.00000
10.99121			-47.63892			298494.00000
10.99121			-48.77223			298595.00000
10.99121			-48.87101			298696.00000
10.99121			-48.55499			298795.00000
10.99121			-48.35052			298896.00000
10.99121			-48.20305			298995.00000
10.99121			-47.96909			299095.00000
10.99121			-47.87396			299196.00000
10.99121			-47.78907			299295.00000
10.99121			-47.71025			299395.00000
-10.99121			35.88439			302080.00000
-10.99121			38.23918			302180.00000
-10.99121			38.18944			302281.00000
-10.99121			37.96072			302380.00000
-10.99121			37.83506			302481.00000
-10.99121			37.73943			302580.00000
-10.99121			37.65789			302680.00000
-10.99121			37.58728			302781.00000
-10.99121			37.46907			302880.00000
-10.99121			37.41969			302980.00000
-0.00732			-0.10142			304515.00000
-0.00732			-0.23584			304616.00000
-0.00732			-0.27457			304715.00000
-0.00732			-0.23893			304815.00000
-0.00732			-0.22196			304916.00000
-0.00732			-0.20610			305015.00000
-0.00732			-0.19351			305115.00000
-0.00732			-0.18144			305216.00000
-0.00732			-0.17197			305315.00000
-0.00732			-0.16465			305415.00000
10.73975			-44.03068			306692.00000
10.73975			-45.12775			306794.00000
10.73975			-45.35576			306894.00000
10.73975			-45.16312			306993.00000
10.73975			-44.98494			307094.00000
10.73975			-44.73550			307193.00000
10.73975			-44.63953			307293.00000
10.73975			-44.55500			307394.00000
10.73975			-44.47912			307493.00000
10.73975			-44.41130			307593.00000
-10.73975			34.69924			310290.00000
-10.73975			35.46147			310391.00000
-10.73975			35.55632			310491.00000
-10.73975			35.35555			310592.00000
-10.73975			35.22766			310691.00000
-10.73975			35.13888			310791.00000
-10.73975			35.00006			310892.00000
-10.73975			34.94202			310991.00000
-10.73975			34.89163			311091.00000
-10.73975			34.84629			311192.00000
-0.00732			-0.07188			312713.00000
-0.00732			-0.22407			312814.00000
-0.00732			-0.26092			312913.00000
-0.00732			-0.23983			313013.00000
-0.00732			-0.22025			313114.00000
-0.00732			-0.20489			313213.00000
-0.00732			-0.19283			313313.00000
-0.00732			-0.18094			313414.00000
-0.00732			-0.17056			313513.00000
-0.00732			-0.15626			313613.00000
10.48828			-40.96768			314860.00000
10.48828			-42.04301			314961.00000
10.48828			-42.18057			315061.00000
10.48828			-41.92088			315162.00000
10.48828			-41.75373			315261.00000
10.48828			-41.63261			315361.00000
10.48828			-41.44437			315462.00000
10.48828			-41.36816			315561.00000
10.48828			-41.30120			315661.00000
10.48828			-41.23964			315762.00000
-10.49072			31.71424			318409.00000
-10.49072			32.86487			318509.00000
-10.49072			33.21186			318610.00000
-10.49072			33.06112			318709.00000
-10.49072			32.82156			318809.00000
-10.49072			32.74648			318910.00000
-10.49072			32.68256			319009.00000
-10.49072			32.62782			319109.00000
-10.49072			32.57959			319210.00000
-10.49072			32.53658			319309.00000
-0.00732			-0.04393			320801.00000
-0.00732			-0.21497			320902.00000
-0.00732			-0.26442			321003.00000
-0.00732			-0.23873			321102.00000
-0.00732			-0.21832			321202.00000
-0.00732			-0.20268			321303.00000
-0.00732			-0.18939			321402.00000
-0.00732			-0.17916			321502.00000
-0.00732			-0.16968			321603.00000
-0.00732			-0.15985			321702.00000
10.23926			-36.69315			322936.00000
10.23926			-39.37349			323036.00000
10.23926			-39.39564			323137.00000
10.23926			-39.20597			323236.00000
10.23926			-39.06826			323336.00000
10.23926			-38.95997			323437.00000
10.23926			-38.86838			323536.00000
10.23926			-38.78855			323636.00000
10.23926			-38.65755			323737.00000
10.23926			-38.60157			323836.00000
-10.24170			29.13181			326440.00000
-10.24170			30.48001			326541.00000
-10.24170			30.93917			326642.00000
-10.24170			30.78401			326741.00000
-10.24170			30.69416			326841.00000
-10.24170			30.62177			326942.00000
-10.24170			30.56004			327041.00000
-10.24170			30.50602			327142.00000
-10.24170			30.46005			327241.00000
-10.24170			30.38233			327341.00000
-0.00732			0.00433			328827.00000
-0.00732			-0.26278			328928.00000
-0.00732			-0.25655			329029.00000
-0.00732			-0.23362			329128.00000
-0.00732			-0.21435			329228.00000
-0.00732			-0.19818			329329.00000
-0.00732			-0.18594			329428.00000
-0.00732			-0.17501			329528.00000
-0.00732			-0.15483			329629.00000
-0.00732			-0.14636			329728.00000
9.99268			-35.85919			330968.00000
9.99268			-36.68412			331069.00000
9.99268			-36.79897			331168.00000
9.99268			-36.59140			331268.00000
9.99268			-36.44637			331369.00000
9.99268			-36.34510			331468.00000
9.99268			-36.18441			331568.00000
9.99268			-36.11826			331669.00000
9.99268			-36.06146			331768.00000
9.99268			-36.01154			331868.00000
-9.99268			27.36025			334449.00000
-9.99268			28.95466			334549.00000
-9.99268			28.91719			334649.00000
-9.99268			28.76897			334750.00000
-9.99268			28.68363			334849.00000
-9.99268			28.61715			334950.00000
-9.99268			28.56155			335049.00000
-9.99268			28.51372			335149.00000
-9.99268			28.43314			335250.00000
-9.99268			28.39870			335349.00000
-0.00732			-0.18982			336835.00000
-0.00732			-0.25713			336935.00000
-0.00732			-0.25466			337035.00000
-0.00732			-0.23332			337136.00000
-0.00732			-0.21271			337235.00000
-0.00732			-0.19743			337335.00000
-0.00732			-0.18491			337436.00000
-0.00732			-0.17177			337535.00000
-0.00732			-0.15312			337635.00000
-0.00732			-0.14545			337736.00000
9.74121			-33.68267			338950.00000
9.74121			-34.33880			339052.00000
9.74121			-34.37806			339151.00000
9.74121			-34.22300			339251.00000
9.74121			-34.10484			339352.00000
9.74121			-34.00956			339451.00000
9.74121			-33.93124			339551.00000
9.74121			-33.80338			339652.00000
9.74121			-33.74896			339751.00000
9.74121			-33.70175			339851.00000
-9.74121			26.15377			342413.00000
-9.74121			26.92164			342515.00000
-9.74121			27.09789			342614.00000
-9.74121			26.97345			342715.00000
-9.74121			26.87044			342814.00000
-9.74121			26.74384			342914.00000
-9.74121			26.69508			343015.00000
-9.74121			26.65194			343114.00000
-9.74121			26.61472			343214.00000
-9.74121			26.58129			343315.00000
-0.00732			-0.13726			344775.00000
-0.00732			-0.23797			344876.00000
-0.00732			-0.25127			344977.00000
-0.00732			-0.22978			345076.00000
-0.00732			-0.20942			345176.00000
-0.00732			-0.19479			345277.00000
-0.00732			-0.16885			345376.00000
-0.00732			-0.15827			345476.00000
-0.00732			-0.15020			345577.00000
-0.00732			-0.14239			345676.00000
9.49219			-31.36892			346873.00000
9.49219			-32.09565			346974.00000
9.49219			-32.14854			347075.00000
9.49219			-31.96849			347174.00000
9.49219			-31.85081			347274.00000
9.49219			-31.76246			347375.00000
9.49219			-31.68733			347474.00000
9.49219			-31.56708			347574.00000
9.49219			-31.51569			347675.00000
9.49219			-31.47047			347774.00000
-9.49219			24.74555			350300.00000
-9.49219			25.29971			350401.00000
-9.49219			25.34970			350500.00000
-9.49219			25.22490			350600.00000
-9.49219			25.14409			350701.00000
-9.49219			25.08342			350800.00000
-9.49219			25.03290			350900.00000
-9.49219			24.95161			351001.00000
-9.49219			24.91637			351100.00000
-9.49219			24.88583			351200.00000
-0.00732			-0.02659			352649.00000
-0.00732			-0.19170			352750.00000
-0.00732			-0.23654			352849.00000
-0.00732			-0.21327			352949.00000
-0.00732			-0.19786			353050.00000
-0.00732			-0.18300			353149.00000
-0.00732			-0.16807			353249.00000
-0.00732			-0.15603			353350.00000
-0.00732			-0.14754			353449.00000
-0.00732			-0.13887			353549.00000
9.24072			-28.86228			354747.00000
9.24072			-29.80884			354848.00000
9.24072			-30.09684			354948.00000
9.24072			-29.88709			355049.00000
9.24072			-29.79497			355148.00000
9.24072			-29.72034			355248.00000
9.24072			-29.65678			355349.00000
9.24072			-29.60118			355448.00000
9.24072			-29.55166			355548.00000
9.24072			-29.50692			355649.00000
-9.24072			22.72100			358180.00000
-9.24072			23.48729			358280.00000
-9.24072			23.71994			358381.00000
-9.24072			23.53674			358480.00000
-9.24072			23.47435			358580.00000
-9.24072			23.42350			358681.00000
-9.24072			23.37936			358780.00000
-9.24072			23.34217			358880.00000
-9.24072			23.30813			358981.00000
-9.24072			23.27830			359080.00000
-0.00732			-0.13693			360523.00000
-0.00732			-0.23023			360623.00000
-0.00732			-0.24059			360724.00000
-0.00732			-0.21734			360823.00000
-0.00732			-0.19645			360923.00000
-0.00732			-0.18099			361024.00000
-0.00732			-0.15555			361123.00000
-0.00732			-0.14721			361223.00000
-0.00732			-0.13821			361324.00000
-0.00732			-0.13075			361423.00000
8.99170			-26.61750			362584.00000
8.99170			-27.78163			362685.00000
8.99170			-28.17572			362784.00000
8.99170			-27.96486			362884.00000
8.99170			-27.87566			362985.00000
8.99170			-27.80096			363084.00000
8.99170			-27.73756			363184.00000
8.99170			-27.68441			363285.00000
8.99170			-27.63718			363384.00000
8.99170			-27.59487			363484.00000
-8.99414			20.73654			365943.00000
-8.99414			21.78731			366043.00000
-8.99414			22.19025			366144.00000
-8.99414			22.08881			366243.00000
-8.99414			22.02501			366343.00000
-8.99414			21.97233			366444.00000
-8.99414			21.92747			366543.00000
-8.99414			21.88961			366643.00000
-8.99414			21.85731			366744.00000
-8.99414			21.80164			366843.00000
-0.00732			-0.12069			368261.00000
-0.00732			-0.22397			368363.00000
-0.00732			-0.23657			368462.00000
-0.00732			-0.21535			368562.00000
-0.00732			-0.19600			368663.00000
-0.00732			-0.17871			368762.00000
-0.00732			-0.15231			368862.00000
-0.00732			-0.14244			368963.00000
-0.00732			-0.13650			369062.00000
-0.00732			-0.12926			369162.00000
8.74268			-25.22049			370323.00000
8.74268			-26.11427			370424.00000
8.74268			-26.38146			370524.00000
8.74268			-26.20013			370625.00000
8.74268			-26.11887			370724.00000
8.74268			-26.05189			370824.00000
8.74268			-25.99453			370925.00000
8.74268			-25.94468			371024.00000
8.74268			-25.90150			371124.00000
8.74268			-25.86207			371225.00000
-8.74512			19.67710			373682.00000
-8.74512			20.50377			373784.00000
-8.74512			20.76537			373883.00000
-8.74512			20.67411			373983.00000
-8.74512			20.61514			374084.00000
-8.74512			20.56887			374183.00000
-8.74512			20.52895			374283.00000
-8.74512			20.49434			374384.00000
-8.74512			20.46335			374483.00000
-8.74512			20.41082			374583.00000
-0.00732			-0.13809			376002.00000
-0.00732			-0.22171			376102.00000
-0.00732			-0.22973			376203.00000
-0.00732			-0.20776			376304.00000
-0.00732			-0.18881			376403.00000
-0.00732			-0.17275			376503.00000
-0.00732			-0.15915			376604.00000
-0.00732			-0.13995			376703.00000
-0.00732			-0.13143			376803.00000
-0.00732			-0.12446			376904.00000
8.49121			-23.85986			378039.00000
8.49121			-24.56900			378140.00000
8.49121			-24.68869			378239.00000
8.49121			-24.56774			378339.00000
8.49121			-24.47059			378440.00000
8.49121			-24.39856			378539.00000
8.49121			-24.28464			378640.00000
8.49121			-24.23915			378739.00000
8.49121			-24.20094			378839.00000
8.49121			-24.16452			378940.00000
-8.49365			18.23981			381342.00000
-8.49365			19.47230			381443.00000
-8.49365			19.45237			381544.00000
-8.49365			19.36472			381643.00000
-8.49365			19.30847			381743.00000
-8.49365			19.26325			381844.00000
-8.49365			19.22472			381943.00000
-8.49365			19.19202			382043.00000
-8.49365			19.16219			382144.00000
-8.49365			19.11209			382243.00000
-0.00732			0.04728			383637.00000
-0.00732			-0.22186			383738.00000
-0.00732			-0.21839			383838.00000
-0.00732			-0.19685			383939.00000
-0.00732			-0.17858			384038.00000
-0.00732			-0.16315			384138.00000
-0.00732			-0.15053			384239.00000
-0.00732			-0.14115			384338.00000
-0.00732			-0.12336			384438.00000
-0.00732			-0.11753			384539.00000
8.24219			-22.61528			385674.00000
8.24219			-23.06321			385775.00000
8.24219			-23.11348			385874.00000
8.24219			-23.01754			385974.00000
8.24219			-22.93613			386075.00000
8.24219			-22.87052			386174.00000
8.24219			-22.81724			386274.00000
8.24219			-22.72846			386375.00000
8.24219			-22.69214			386474.00000
8.24219			-22.65846			386574.00000
-8.24463			17.53874			388966.00000
-8.24463			18.09611			389067.00000
-8.24463			18.25011			389167.00000
-8.24463			18.19150			389268.00000
-8.24463			18.07676			389367.00000
-8.24463			18.03734			389467.00000
-8.24463			18.00399			389568.00000
-8.24463			17.97441			389667.00000
-8.24463			17.94734			389767.00000
-8.24463			17.92467			389868.00000
-0.00732			-0.05341			391261.00000
-0.00732			-0.18263			391362.00000
-0.00732			-0.21756			391461.00000
-0.00732			-0.18343			391561.00000
-0.00732			-0.16536			391662.00000
-0.00732			-0.15279			391761.00000
-0.00732			-0.14374			391861.00000
-0.00732			-0.13137			391962.00000
-0.00732			-0.12177			392061.00000
-0.00732			-0.11403			392161.00000
7.99072			-20.78467			393267.00000
7.99072			-21.48945			393369.00000
7.99072			-21.65916			393469.00000
7.99072			-21.56086			393568.00000
7.99072			-21.46897			393669.00000
7.99072			-21.34902			393768.00000
7.99072			-21.30248			393868.00000
7.99072			-21.26115			393969.00000
7.99072			-21.22544			394068.00000
7.99072			-21.19326			394168.00000
-7.99072			16.48903			396511.00000
-7.99072			16.99588			396612.00000
-7.99072			17.10365			396711.00000
-7.99072			17.03034			396811.00000
-7.99072			16.97099			396912.00000
-7.99072			16.92851			397011.00000
-7.99072			16.85990			397111.00000
-7.99072			16.83315			397212.00000
-7.99072			16.80807			397311.00000
-7.99072			16.78695			397411.00000
-0.00732			0.09667			398775.00000
-0.00732			-0.20495			398876.00000
-0.00732			-0.20834			398975.00000
-0.00732			-0.18677			399075.00000
-0.00732			-0.16817			399176.00000
-0.00732			-0.15246			399275.00000
-0.00732			-0.14012			399376.00000
-0.00732			-0.13178			399475.00000
-0.00732			-0.11393			399575.00000
-0.00732			-0.10662			399676.00000
7.74170			-19.20184			400768.00000
7.74170			-20.01858			400870.00000
7.74170			-20.28993			400969.00000
7.74170			-20.16758			401069.00000
7.74170			-20.10009			401170.00000
7.74170			-20.04648			401269.00000
7.74170			-20.00136			401369.00000
7.74170			-19.96114			401470.00000
7.74170			-19.92678			401569.00000
7.74170			-19.89609			401669.00000
-7.74170			15.32580			404012.00000
-7.74170			15.87807			404114.00000
-7.74170			16.03858			404213.00000
-7.74170			15.98894			404313.00000
-7.74170			15.88554			404414.00000
-7.74170			15.84954			404513.00000
-7.74170			15.81898			404613.00000
-7.74170			15.79226			404714.00000
-7.74170			15.76959			404813.00000
-7.74170			15.74855			404913.00000
-0.00732			-0.09669			406277.00000
-0.00732			-0.19313			406378.00000
-0.00732			-0.20809			406477.00000
-0.00732			-0.18868			406577.00000
-0.00732			-0.16863			406678.00000
-0.00732			-0.15488			406777.00000
-0.00732			-0.13195			406877.00000
-0.00732			-0.12258			406978.00000
-0.00732			-0.11496			407077.00000
-0.00732			-0.10828			407177.00000
7.49023			-17.86262			408259.00000
7.49023			-18.70050			408360.00000
7.49023			-18.97829			408460.00000
7.49023			-18.88610			408561.00000
7.49023			-18.82198			408660.00000
7.49023			-18.77055			408760.00000
7.49023			-18.72573			408861.00000
7.49023			-18.68861			408960.00000
7.49023			-18.65556			409060.00000
7.49023			-18.60028			409161.00000
-7.49512			14.57138			411460.00000
-7.49512			14.96351			411561.00000
-7.49512			15.03843			411661.00000
-7.49512			14.98165			411762.00000
-7.49512			14.93252			411861.00000
-7.49512			14.89411			411961.00000
-7.49512			14.86309			412061.00000
-7.49512			14.81129			412161.00000
-7.49512			14.79003			412262.00000
-7.49512			14.77160			412361.00000
-0.00732			0.01270			413706.00000
-0.00732			-0.14779			413808.00000
-0.00732			-0.19748			413907.00000
-0.00732			-0.16729			414007.00000
-0.00732			-0.14955			414108.00000
-0.00732			-0.13555			414207.00000
-0.00732			-0.12565			414307.00000
-0.00732			-0.11637			414408.00000
-0.00732			-0.10825			414507.00000
-0.00732			-0.10139			414608.00000
7.24121			-17.36952			415676.00000
7.24121			-17.75605			415777.00000
7.24121			-17.79227			415877.00000
7.24121			-17.71581			415978.00000
7.24121			-17.65229			416077.00000
7.24121			-17.60149			416177.00000
7.24121			-17.55917			416278.00000
7.24121			-17.48977			416377.00000
7.24121			-17.46044			416477.00000
7.24121			-17.43412			416578.00000
-7.24121			13.66689			418852.00000
-7.24121			14.01660			418953.00000
-7.24121			14.07189			419054.00000
-7.24121			14.01222			419153.00000
-7.24121			13.96462			419253.00000
-7.24121			13.92915			419354.00000
-7.24121			13.87458			419453.00000
-7.24121			13.85139			419553.00000
-7.24121			13.83206			419654.00000
-7.24121			13.81451			419753.00000
-0.00732			-0.02126			421074.00000
-0.00732			-0.15887			421175.00000
-0.00732			-0.19213			421276.00000
-0.00732			-0.17788			421375.00000
-0.00732			-0.13995			421475.00000
-0.00732			-0.12798			421576.00000
-0.00732			-0.11951			421675.00000
-0.00732			-0.11195			421776.00000
-0.00732			-0.10260			421875.00000
-0.00732			-0.09458			421975.00000
6.99219			-15.77963			423026.00000
6.99219			-16.44973			423127.00000
6.99219			-16.65722			423228.00000
6.99219			-16.53607			423327.00000
6.99219			-16.48216			423427.00000
6.99219			-16.43782			423528.00000
6.99219			-16.40042			423627.00000
6.99219			-16.36777			423727.00000
6.99219			-16.33863			423828.00000
6.99219			-16.31415			423927.00000
-6.99463			12.70417			426165.00000
-6.99463			13.10674			426267.00000
-6.99463			13.20524			426366.00000
-6.99463			13.16294			426466.00000
-6.99463			13.11619			426567.00000
-6.99463			13.05322			426666.00000
-6.99463			13.02834			426766.00000
-6.99463			13.00637			426867.00000
-6.99463			12.98782			426966.00000
-6.99463			12.97096			427067.00000
-0.00732			-0.00801			428387.00000
-0.00732			-0.14616			428488.00000
-0.00732			-0.18258			428587.00000
-0.00732			-0.17290			428688.00000
-0.00732			-0.13542			428787.00000
-0.00732			-0.12306			428887.00000
-0.00732			-0.11421			428988.00000
-0.00732			-0.10400			429087.00000
-0.00732			-0.09553			429187.00000
-0.00732			-0.08854			429288.00000
6.74072			-14.79316			430320.00000
6.74072			-15.40444			430420.00000
6.74072			-15.58036			430520.00000
6.74072			-15.53783			430621.00000
6.74072			-15.42256			430720.00000
6.74072			-15.38109			430820.00000
6.74072			-15.34711			430921.00000
6.74072			-15.31705			431020.00000
6.74072			-15.28935			431121.00000
6.74072			-15.26459			431220.00000
-6.74072			11.48595			433429.00000
-6.74072			12.33635			433530.00000
-6.74072			12.33537			433630.00000
-6.74072			12.28014			433731.00000
-6.74072			12.24121			433830.00000
-6.74072			12.21075			433930.00000
-6.74072			12.18594			434031.00000
-6.74072			12.16362			434130.00000
-6.74072			12.14401			434230.00000
-6.74072			12.11093			434331.00000
-0.00732			0.08825			435614.00000
-0.00732			-0.10991			435715.00000
-0.00732			-0.17154			435816.00000
-0.00732			-0.15148			435915.00000
-0.00732			-0.13512			436015.00000
-0.00732			-0.12089			436116.00000
-0.00732			-0.11011			436215.00000
-0.00732			-0.10101			436315.00000
-0.00732			-0.09357			436416.00000
-0.00732			-0.08648			436515.00000
6.49170			-13.82184			437542.00000
6.49170			-14.38904			437642.00000
6.49170			-14.54638			437743.00000
6.49170			-14.43408			437842.00000
6.49170			-14.38879			437942.00000
6.49170			-14.34998			438043.00000
6.49170			-14.31677			438142.00000
6.49170			-14.28855			438242.00000
6.49170			-14.26311			438343.00000
6.49170			-14.24004			438442.00000
-6.49414			11.01404			440620.00000
-6.49414			11.44400			440722.00000
-6.49414			11.57483			440821.00000
-6.49414			11.50558			440921.00000
-6.49414			11.47288			441022.00000
-6.49414			11.44644			441121.00000
-6.49414			11.42483			441221.00000
-6.49414			11.40552			441322.00000
-6.49414			11.38793			441421.00000
-6.49414			11.37275			441521.00000
-0.00732			-0.00316			442806.00000
-0.00732			-0.13660			442907.00000
-0.00732			-0.16734			443006.00000
-0.00732			-0.15397			443106.00000
-0.00732			-0.12034			443207.00000
-0.00732			-0.10790			443306.00000
-0.00732			-0.09978			443406.00000
-0.00732			-0.09088			443507.00000
-0.00732			-0.08241			443606.00000
-0.00732			-0.07698			443707.00000
6.24023			-13.22730			444702.00000
6.24023			-13.55320			444803.00000
6.24023			-13.57444			444904.00000
6.24023			-13.51341			445003.00000
6.24023			-13.46306			445103.00000
6.24023			-13.42355			445204.00000
6.24023			-13.39093			445303.00000
6.24023			-13.36159			445403.00000
6.24023			-13.31361			445504.00000
6.24023			-13.29303			445603.00000
-6.24512			10.34186			447732.00000
-6.24512			10.74357			447833.00000
-6.24512			10.84612			447934.00000
-6.24512			10.81065			448033.00000
-6.24512			10.73899			448133.00000
-6.24512			10.71310			448234.00000
-6.24512			10.69229			448333.00000
-6.24512			10.67424			448433.00000
-6.24512			10.65687			448534.00000
-6.24512			10.64144			448633.00000
-0.00732			0.17203			449886.00000
-0.00732			-0.15234			449988.00000
-0.00732			-0.15598			450087.00000
-0.00732			-0.13713			450187.00000
-0.00732			-0.12193			450288.00000
-0.00732			-0.10659			450387.00000
-0.00732			-0.09568			450487.00000
-0.00732			-0.08842			450588.00000
-0.00732			-0.07472			450687.00000
-0.00732			-0.06816			450787.00000
5.99121			-12.12990			451772.00000
5.99121			-12.57007			451873.00000
5.99121			-12.65113			451973.00000
5.99121			-12.59156			452074.00000
5.99121			-12.53935			452173.00000
5.99121			-12.46767			452273.00000
5.99121			-12.44067			452374.00000
5.99121			-12.41606			452473.00000
5.99121			-12.39407			452573.00000
5.99121			-12.37447			452674.00000
-5.99365			9.68920			454765.00000
-5.99365			10.05640			454866.00000
-5.99365			10.14724			454966.00000
-5.99365			10.11046			455067.00000
-5.99365			10.07233			455166.00000
-5.99365			10.02041			455266.00000
-5.99365			10.00123			455367.00000
-5.99365			9.98356			455466.00000
-5.99365			9.96709			455566.00000
-5.99365			9.95237			455667.00000
-0.00732			0.10927			456908.00000
-0.00732			-0.08679			457009.00000
-0.00732			-0.14490			457110.00000
-0.00732			-0.12537			457209.00000
-0.00732			-0.10923			457309.00000
-0.00732			-0.09684			457410.00000
-0.00732			-0.08892			457509.00000
-0.00732			-0.08075			457609.00000
-0.00732			-0.07387			457710.00000
-0.00732			-0.06638			457809.00000
5.74219			-11.46445			458787.00000
5.74219			-11.74951			458887.00000
5.74219			-11.78088			458988.00000
5.74219			-11.73021			459087.00000
5.74219			-11.68697			459187.00000
5.74219			-11.65166			459289.00000
5.74219			-11.62265			459387.00000
5.74219			-11.57578			459487.00000
5.74219			-11.55592			459588.00000
5.74219			-11.53757			459687.00000
-5.74463			8.89220			461748.00000
-5.74463			9.32557			461850.00000
-5.74463			9.46869			461949.00000
-5.74463			9.42689			462049.00000
-5.74463			9.39829			462150.00000
-5.74463			9.37456			462249.00000
-5.74463			9.35433			462349.00000
-5.74463			9.33776			462450.00000
-5.74463			9.32309			462549.00000
-5.74463			9.30924			462649.00000
-0.00732			0.19221			463879.00000
-0.00732			-0.13205			463981.00000
-0.00732			-0.13972			464080.00000
-0.00732			-0.12109			464180.00000
-0.00732			-0.10634			464281.00000
-0.00732			-0.09335			464380.00000
-0.00732			-0.08344			464480.00000
-0.00732			-0.07558			464581.00000
-0.00732			-0.06032			464680.00000
-0.00732			-0.05396			464780.00000
5.49072			-9.96794			465728.00000
5.49072			-10.92666			465828.00000
5.49072			-10.93973			465928.00000
5.49072			-10.88326			466029.00000
5.49072			-10.84306			466128.00000
5.49072			-10.81099			466228.00000
5.49072			-10.78339			466329.00000
5.49072			-10.76128			466428.00000
5.49072			-10.72078			466528.00000
5.49072			-10.70407			466629.00000
-5.49072			8.52108			468659.00000
-5.49072			8.80998			468760.00000
-5.49072			8.86962			468859.00000
-5.49072			8.83029			468959.00000
-5.49072			8.79688			469060.00000
-5.49072			8.77202			469159.00000
-5.49072			8.73417			469259.00000
-5.49072			8.71851			469360.00000
-5.49072			8.70411			469459.00000
-5.49072			8.69207			469559.00000
-0.00732			0.02225			470765.00000
-0.00732			-0.10664			470865.00000
-0.00732			-0.13276			470965.00000
-0.00732			-0.11735			471066.00000
-0.00732			-0.10164			471165.00000
-0.00732			-0.08701			471265.00000
-0.00732			-0.06814			471366.00000
-0.00732			-0.06215			471465.00000
-0.00732			-0.05579			471565.00000
-0.00732			-0.04896			471666.00000
5.24414			-9.87642			472594.00000
5.24414			-10.14861			472695.00000
5.24414			-10.17741			472795.00000
5.24414			-10.13406			472896.00000
5.24414			-10.09567			472995.00000
5.24414			-10.06534			473095.00000
5.24414			-10.04040			473196.00000
5.24414			-10.01781			473295.00000
5.24414			-9.97943			473395.00000
5.24414			-9.96429			473496.00000
-5.24414			7.57062			475497.00000
-5.24414			8.26928			475597.00000
-5.24414			8.28468			475697.00000
-5.24414			8.24663			475798.00000
-5.24414			8.21923			475897.00000
-5.24414			8.19689			475997.00000
-5.24414			8.17798			476098.00000
-5.24414			8.16185			476197.00000
-5.24414			8.13450			476297.00000
-5.24414			8.12326			476398.00000
-0.00732			0.15635			477584.00000
-0.00732			-0.05391			477683.00000
-0.00732			-0.12253			477783.00000
-0.00732			-0.10036			477884.00000
-0.00732			-0.08523			477983.00000
-0.00732			-0.07389			478083.00000
-0.00732			-0.06587			478184.00000
-0.00732			-0.05770			478283.00000
-0.00732			-0.05057			478383.00000
-0.00732			-0.04428			478484.00000
4.99268			-9.01829			479388.00000
4.99268			-9.37674			479488.00000
4.99268			-9.43834			479588.00000
4.99268			-9.39008			479689.00000
4.99268			-9.35017			479788.00000
4.99268			-9.32026			479889.00000
4.99268			-9.27426			479988.00000
4.99268			-9.25526			480088.00000
4.99268			-9.23872			480189.00000
4.99268			-9.22367			480289.00000
-4.99512			7.30080			482227.00000
-4.99512			7.64839			482329.00000
-4.99512			7.75200			482428.00000
-4.99512			7.73151			482528.00000
-4.99512			7.67719			482629.00000
-4.99512			7.65673			482728.00000
-4.99512			7.64113			482828.00000
-4.99512			7.62607			482929.00000
-4.99512			7.61292			483028.00000
-4.99512			7.60207			483128.00000
-0.00732			0.00903			484298.00000
-0.00732			-0.09840			484398.00000
-0.00732			-0.11021			484499.00000
-0.00732			-0.09307			484598.00000
-0.00732			-0.07877			484698.00000
-0.00732			-0.06655			484799.00000
-0.00732			-0.05700			484898.00000
-0.00732			-0.04328			484998.00000
-0.00732			-0.03677			485099.00000
-0.00732			-0.03043			485198.00000
4.74121			-8.23905			486097.00000
4.74121			-8.62905			486197.00000
4.74121			-8.73026			486298.00000
4.74121			-8.70508			486397.00000
4.74121			-8.63842			486497.00000
4.74121			-8.61480			486598.00000
4.74121			-8.59511			486697.00000
4.74121			-8.57712			486797.00000
4.74121			-8.56053			486898.00000
4.74121			-8.54610			486997.00000
-4.74365			6.73101			488930.00000
-4.74365			7.09786			489032.00000
-4.74365			7.21685			489131.00000
-4.74365			7.17093			489232.00000
-4.74365			7.14745			489331.00000
-4.74365			7.12945			489431.00000
-4.74365			7.11334			489532.00000
-4.74365			7.09808			489631.00000
-4.74365			7.08567			489731.00000
-4.74365			7.07446			489832.00000
-0.00732			0.01413			490988.00000
-0.00732			-0.09224			491088.00000
-0.00732			-0.10355			491188.00000
-0.00732			-0.08568			491289.00000
-0.00732			-0.07160			491388.00000
-0.00732			-0.06077			491488.00000
-0.00732			-0.05102			491589.00000
-0.00732			-0.03669			491688.00000
-0.00732			-0.03267			491788.00000
-0.00732			-0.02749			491889.00000
4.49219			-7.70966			492750.00000
4.49219			-8.01726			492851.00000
4.49219			-8.05735			492952.00000
4.49219			-8.01568			493051.00000
4.49219			-7.98350			493151.00000
4.49219			-7.95809			493252.00000
4.49219			-7.93605			493351.00000
4.49219			-7.90011			493451.00000
4.49219			-7.88643			493552.00000
4.49219			-7.87216			493651.00000
-4.49463			6.30839			495512.00000
-4.49463			6.64040			495613.00000
-4.49463			6.73156			495713.00000
-4.49463			6.71120			495814.00000
-4.49463			6.66247			495913.00000
-4.49463			6.64424			496013.00000
-4.49463			6.62997			496114.00000
-4.49463			6.61715			496213.00000
-4.49463			6.60519			496313.00000
-4.49463			6.59481			496414.00000
-0.00732			0.15976			497533.00000
-0.00732			-0.04177			497633.00000
-0.00732			-0.09563			497734.00000
-0.00732			-0.08540			497833.00000
-0.00732			-0.05667			497933.00000
-0.00732			-0.04790			498034.00000
-0.00732			-0.04036			498133.00000
-0.00732			-0.03312			498233.00000
-0.00732			-0.02586			498334.00000
-0.00732			-0.02126			498433.00000
4.24316			-6.97004			499289.00000
4.24316			-7.32534			499391.00000
4.24316			-7.41990			499491.00000
4.24316			-7.39851			499590.00000
4.24316			-7.36546			499691.00000
4.24316			-7.31929			499790.00000
4.24316			-7.30164			499890.00000
4.24316			-7.28641			499991.00000
4.24316			-7.27331			500090.00000
4.24316			-7.25967			500190.00000
-4.24072			5.78335			502051.00000
-4.24072			6.12697			502152.00000
-4.24072			6.23578			502253.00000
-4.24072			6.20677			502352.00000
-4.24072			6.18606			502452.00000
-4.24072			6.16952			502553.00000
-4.24072			6.15482			502652.00000
-4.24072			6.14248			502752.00000
-4.24072			6.13162			502853.00000
-4.24072			6.11181			502952.00000
-0.00732			0.20920			504060.00000
-0.00732			-0.01163			504160.00000
-0.00732			-0.08085			504261.00000
-0.00732			-0.06173			504360.00000
-0.00732			-0.04836			504460.00000
-0.00732			-0.03993			504561.00000
-0.00732			-0.03342			504660.00000
-0.00732			-0.02641			504760.00000
-0.00732			-0.02005			504861.00000
-0.00732			-0.01578			504960.00000
3.99170			-6.41892			505785.00000
3.99170			-6.74533			505886.00000
3.99170			-6.81319			505986.00000
3.99170			-6.78220			506087.00000
3.99170			-6.75196			506186.00000
3.99170			-6.72859			506286.00000
3.99170			-6.69353			506387.00000
3.99170			-6.67834			506486.00000
3.99170			-6.66502			506586.00000
3.99170			-6.65389			506687.00000
-3.99414			5.20426			508486.00000
-3.99414			5.79134			508587.00000
-3.99414			5.80614			508688.00000
-3.99414			5.77621			508787.00000
-3.99414			5.75399			508887.00000
-3.99414			5.73790			508988.00000
-3.99414			5.72332			509087.00000
-3.99414			5.71103			509187.00000
-3.99414			5.69087			509288.00000
-3.99414			5.68213			509387.00000
-0.00732			0.19933			510464.00000
-0.00732			-0.01173			510566.00000
-0.00732			-0.07271			510665.00000
-0.00732			-0.06411			510765.00000
-0.00732			-0.05044			510866.00000
-0.00732			-0.02787			510965.00000
-0.00732			-0.02050			511065.00000
-0.00732			-0.01515			511166.00000
-0.00732			-0.01060			511265.00000
-0.00732			-0.00638			511365.00000
3.74268			-5.52945			512179.00000
3.74268			-6.21420			512280.00000
3.74268			-6.22757			512379.00000
3.74268			-6.19872			512479.00000
3.74268			-6.17481			512580.00000
3.74268			-6.15478			512679.00000
3.74268			-6.13779			512779.00000
3.74268			-6.12364			512880.00000
3.74268			-6.09906			512979.00000
3.74268			-6.08832			513079.00000
-3.74512			5.15894			514843.00000
-3.74512			5.35173			514943.00000
-3.74512			5.38151			515043.00000
-3.74512			5.35324			515144.00000
-3.74512			5.33024			515243.00000
-3.74512			5.31418			515344.00000
-3.74512			5.30113			515443.00000
-3.74512			5.27964			515543.00000
-3.74512			5.26989			515644.00000
-3.74512			5.26122			515743.00000
-0.00732			0.23047			516820.00000
-0.00732			0.01270			516921.00000
-0.00732			-0.05765			517021.00000
-0.00732			-0.03865			517121.00000
-0.00732			-0.02629			517222.00000
-0.00732			-0.01794			517321.00000
-0.00732			-0.01060			517421.00000
-0.00732			-0.00512			517522.00000
-0.00732			-0.00035			517621.00000
-0.00732			0.00468			517721.00000
3.49121			-5.02851			518510.00000
3.49121			-5.49426			518611.00000
3.49121			-5.67191			518711.00000
3.49121			-5.64238			518812.00000
3.49121			-5.61923			518911.00000
3.49121			-5.60048			519011.00000
3.49121			-5.58552			519112.00000
3.49121			-5.57067			519211.00000
3.49121			-5.55878			519312.00000
3.49121			-5.54015			519411.00000
-3.49365			4.58798			521131.00000
-3.49365			4.87748			521233.00000
-3.49365			4.96995			521332.00000
-3.49365			4.93358			521432.00000
-3.49365			4.91548			521533.00000
-3.49365			4.89950			521632.00000
-3.49365			4.88791			521732.00000
-3.49365			4.87818			521833.00000
-3.49365			4.86883			521932.00000
-3.49365			4.86014			522032.00000
-0.00732			0.30984			523079.00000
-0.00732			0.05078			523180.00000
-0.00732			-0.04544			523281.00000
-0.00732			-0.03224			523380.00000
-0.00732			-0.01993			523480.00000
-0.00732			-0.01065			523581.00000
-0.00732			-0.00454			523680.00000
-0.00732			0.00121			523780.00000
-0.00732			0.00508			523881.00000
-0.00732			0.01581			523980.00000
3.24219			-4.59070			524744.00000
3.24219			-5.00724			524845.00000
3.24219			-5.15124			524946.00000
3.24219			-5.12432			525045.00000
3.24219			-5.10348			525145.00000
3.24219			-5.08674			525246.00000
3.24219			-5.07332			525345.00000
3.24219			-5.06003			525445.00000
3.24219			-5.05025			525546.00000
3.24219			-5.04150			525645.00000
-3.24463			4.12667			527299.00000
-3.24463			4.45868			527400.00000
-3.24463			4.57639			527500.00000
-3.24463			4.55346			527601.00000
-3.24463			4.53569			527700.00000
-3.24463			4.52220			527800.00000
-3.24463			4.51006			527901.00000
-3.24463			4.50010			528000.00000
-3.24463			4.49048			528100.00000
-3.24463			4.48198			528200.00000
-0.00732			0.27742			529216.00000
-0.00732			0.04236			529317.00000
-0.00732			-0.03285			529417.00000
-0.00732			-0.03179			529518.00000
-0.00732			-0.00683			529617.00000
-0.00732			0.00164			529717.00000
-0.00732			0.00780			529818.00000
-0.00732			0.01298			529917.00000
-0.00732			0.01840			530017.00000
-0.00732			0.02248			530118.00000
2.99072			-4.36117			530850.00000
2.99072			-4.61280			530951.00000
2.99072			-4.65238			531052.00000
2.99072			-4.62705			531151.00000
2.99072			-4.60458			531251.00000
2.99072			-4.58698			531352.00000
2.99072			-4.57366			531451.00000
2.99072			-4.55180			531551.00000
2.99072			-4.54172			531652.00000
2.99072			-4.53397			531751.00000
-2.99316			3.81957			533356.00000
-2.99316			4.11297			533457.00000
-2.99316			4.20595			533557.00000
-2.99316			4.19645			533658.00000
-2.99316			4.15942			533757.00000
-2.99316			4.14691			533857.00000
-2.99316			4.13643			533958.00000
-2.99316			4.12745			534057.00000
-2.99316			4.11885			534157.00000
-2.99316			4.11194			534258.00000
-0.00732			0.17841			535261.00000
-0.00732			0.01287			535362.00000
-0.00732			-0.02317			535461.00000
-0.00732			-0.01467			535561.00000
-0.00732			-0.00065			535662.00000
-0.00732			0.00845			535760.00000
-0.00732			0.02248			535861.00000
-0.00732			0.02584			535962.00000
-0.00732			0.02929			536061.00000
-0.00732			0.03223			536161.00000
2.74170			-3.69768			536877.00000
2.74170			-4.06043			536979.00000
2.74170			-4.17605			537079.00000
2.74170			-4.14963			537178.00000
2.74170			-4.13448			537279.00000
2.74170			-4.12066			537378.00000
2.74170			-4.10806			537478.00000
2.74170			-4.09723			537579.00000
2.74170			-4.08833			537678.00000
2.74170			-4.08082			537778.00000
-2.74414			3.48493			539341.00000
-2.74414			3.76013			539441.00000
-2.74414			3.84717			539542.00000
-2.74414			3.82015			539641.00000
-2.74414			3.80482			539741.00000
-2.74414			3.79263			539842.00000
-2.74414			3.78288			539941.00000
-2.74414			3.77302			540041.00000
-2.74414			3.76488			540142.00000
-2.74414			3.75812			540241.00000
-0.00732			0.44726			541209.00000
-0.00732			0.12857			541310.00000
-0.00732			-0.00806			541410.00000
-0.00732			0.00375			541511.00000
-0.00732			0.01365			541610.00000
-0.00732			0.01991			541710.00000
-0.00732			0.02637			541811.00000
-0.00732			0.03175			541910.00000
-0.00732			0.03580			542011.00000
-0.00732			0.04542			542110.00000
2.49268			-3.07549			542807.00000
2.49268			-3.70283			542908.00000
2.49268			-3.72211			543007.00000
2.49268			-3.69884			543107.00000
2.49268			-3.68036			543208.00000
2.49268			-3.66674			543307.00000
2.49268			-3.65601			543407.00000
2.49268			-3.64613			543508.00000
2.49268			-3.63017			543607.00000
2.49268			-3.62369			543707.00000
-2.49512			3.17257			545233.00000
-2.49512			3.42345			545334.00000
-2.49512			3.49890			545435.00000
-2.49512			3.49181			545534.00000
-2.49512			3.45893			545634.00000
-2.49512			3.44800			545735.00000
-2.49512			3.43890			545834.00000
-2.49512			3.43106			545934.00000
-2.49512			3.42327			546035.00000
-2.49512			3.41729			546134.00000
-0.00732			0.35217			547083.00000
-0.00732			0.09240			547185.00000
-0.00732			0.00938			547284.00000
-0.00732			0.01594			547384.00000
-0.00732			0.02612			547485.00000
-0.00732			0.03323			547584.00000
-0.00732			0.03876			547684.00000
-0.00732			0.04429			547785.00000
-0.00732			0.04728			547884.00000
-0.00732			0.04970			547985.00000
2.24121			-2.93878			548638.00000
2.24121			-3.21851			548738.00000
2.24121			-3.28429			548839.00000
2.24121			-3.27197			548938.00000
2.24121			-3.25473			549038.00000
2.24121			-3.24090			549139.00000
2.24121			-3.22110			549238.00000
2.24121			-3.21235			549338.00000
2.24121			-3.20428			549439.00000
2.24121			-3.19785			549538.00000
-2.24121			2.94321			550996.00000
-2.24121			3.12243			551097.00000
-2.24121			3.14980			551198.00000
-2.24121			3.13178			551297.00000
-2.24121			3.11730			551398.00000
-2.24121			3.10559			551497.00000
-2.24121			3.09561			551597.00000
-2.24121			3.08080			551698.00000
-2.24121			3.07495			551797.00000
-2.24121			3.06932			551897.00000
-0.00732			0.44271			552816.00000
-0.00732			0.13606			552916.00000
-0.00732			0.01871			553016.00000
-0.00732			0.02949			553117.00000
-0.00732			0.03726			553216.00000
-0.00732			0.04316			553316.00000
-0.00732			0.04721			553417.00000
-0.00732			0.05123			553516.00000
-0.00732			0.05581			553617.00000
-0.00732			0.06018			553716.00000
1.99219			-2.58257			554353.00000
1.99219			-2.81630			554453.00000
1.99219			-2.86189			554553.00000
1.99219			-2.84691			554654.00000
1.99219			-2.83181			554753.00000
1.99219			-2.81956			554854.00000
1.99219			-2.80210			554953.00000
1.99219			-2.79471			555053.00000
1.99219			-2.78850			555154.00000
1.99219			-2.78274			555253.00000
-1.99219			2.54239			556662.00000
-1.99219			2.76360			556763.00000
-1.99219			2.82113			556864.00000
-1.99219			2.81274			556963.00000
-1.99219			2.79884			557063.00000
-1.99219			2.77763			557164.00000
-1.99219			2.76840			557263.00000
-1.99219			2.76199			557363.00000
-1.99219			2.75714			557464.00000
-1.99219			2.75141			557563.00000
-0.00732			0.50783			558457.00000
-0.00732			0.17547			558558.00000
-0.00732			0.03178			558659.00000
-0.00732			0.04055			558758.00000
-0.00732			0.04839			558858.00000
-0.00732			0.05538			558959.00000
-0.00732			0.06030			559058.00000
-0.00732			0.06294			559158.00000
-0.00732			0.06694			559259.00000
-0.00732			0.07239			559358.00000
1.74072			-1.80770			559958.00000
1.74072			-2.43108			560059.00000
1.74072			-2.45659			560158.00000
1.74072			-2.44267			560258.00000
1.74072			-2.43015			560359.00000
1.74072			-2.41994			560458.00000
1.74072			-2.41203			560558.00000
1.74072			-2.40529			560659.00000
1.74072			-2.39941			560758.00000
1.74072			-2.38883			560858.00000
-1.74072			2.18042			562201.00000
-1.74072			2.42197			562301.00000
-1.74072			2.48505			562401.00000
-1.74072			2.47284			562502.00000
-1.74072			2.45733			562601.00000
-1.74072			2.44054			562701.00000
-1.74072			2.43285			562802.00000
-1.74072			2.42654			562901.00000
-1.74072			2.42033			563001.00000
-1.74072			2.41520			563102.00000
-0.00732			0.36919			563965.00000
-0.00732			0.12450			564065.00000
-0.00732			0.05068			564166.00000
-0.00732			0.04987			564265.00000
-0.00732			0.05882			564365.00000
-0.00732			0.06953			564466.00000
-0.00732			0.07375			564565.00000
-0.00732			0.07664			564665.00000
-0.00732			0.07918			564766.00000
-0.00732			0.08305			564865.00000
1.49170			-1.79046			565435.00000
1.49170			-2.01562			565535.00000
1.49170			-2.05772			565636.00000
1.49170			-2.04352			565737.00000
1.49170			-2.03229			565836.00000
1.49170			-2.02434			565936.00000
1.49170			-2.01640			566037.00000
1.49170			-2.00429			566136.00000
1.49170			-1.99936			566236.00000
1.49170			-1.99509			566337.00000
-1.49414			1.66610			567612.00000
-1.49414			2.01485			567712.00000
-1.49414			2.16285			567812.00000
-1.49414			2.14867			567913.00000
-1.49414			2.13854			568012.00000
-1.49414			2.13063			568112.00000
-1.49414			2.12422			568213.00000
-1.49414			2.11821			568312.00000
-1.49414			2.11213			568412.00000
-1.49414			2.10438			568513.00000
-0.00732			0.43336			569339.00000
-0.00732			0.15441			569440.00000
-0.00732			0.06671			569541.00000
-0.00732			0.06410			569640.00000
-0.00732			0.07639			569740.00000
-0.00732			0.08164			569841.00000
-0.00732			0.08637			569940.00000
-0.00732			0.08745			570040.00000
-0.00732			0.08946			570141.00000
-0.00732			0.09476			570240.00000
1.24023			-1.11134			570779.00000
1.24023			-1.50322			570879.00000
1.24023			-1.67502			570979.00000
1.24023			-1.66180			571080.00000
1.24023			-1.65345			571179.00000
1.24023			-1.64677			571280.00000
1.24023			-1.64114			571379.00000
1.24023			-1.63566			571479.00000
1.24023			-1.63108			571580.00000
1.24023			-1.62143			571679.00000
-1.24268			1.36991			572888.00000
-1.24268			1.70509			572989.00000
-1.24268			1.83720			573088.00000
-1.24268			1.82322			573188.00000
-1.24268			1.81370			573289.00000
-1.24268			1.80701			573388.00000
-1.24268			1.80025			573488.00000
-1.24268			1.79553			573589.00000
-1.24268			1.79128			573688.00000
-1.24268			1.78346			573788.00000
-0.00732			0.31188			574579.00000
-0.00732			0.11615			574680.00000
-0.00732			0.07516			574781.00000
-0.00732			0.08021			574880.00000
-0.00732			0.08687			574980.00000
-0.00732			0.09200			575081.00000
-0.00732			0.09589			575180.00000
-0.00732			0.09879			575280.00000
-0.00732			0.10462			575380.00000
-0.00732			0.10610			575480.00000
0.99121			-0.68259			575976.00000
0.99121			-1.27241			576076.00000
0.99121			-1.29684			576177.00000
0.99121			-1.28457			576278.00000
0.99121			-1.27610			576377.00000
0.99121			-1.27092			576477.00000
0.99121			-1.26547			576578.00000
0.99121			-1.26109			576677.00000
0.99121			-1.25747			576777.00000
0.99121			-1.25029			576878.00000
-0.99121			1.31577			578012.00000
-0.99121			1.48885			578113.00000
-0.99121			1.51720			578212.00000
-0.99121			1.50660			578312.00000
-0.99121			1.49785			578413.00000
-0.99121			1.49209			578512.00000
-0.99121			1.48694			578612.00000
-0.99121			1.48242			578713.00000
-0.99121			1.47417			578812.00000
-0.99121			1.47131			578912.00000
-0.00732			0.68476			579673.00000
-0.00732			0.12206			579774.00000
-0.00732			0.09476			579873.00000
-0.00732			0.09982			579973.00000
-0.00732			0.10384			580074.00000
-0.00732			0.10743			580173.00000
-0.00732			0.11015			580273.00000
-0.00732			0.11261			580374.00000
-0.00732			0.11409			580473.00000
-0.00732			0.11801			580573.00000
0.74219			-0.58715			581027.00000
0.74219			-0.85773			581127.00000
0.74219			-0.93441			581228.00000
0.74219			-0.93208			581327.00000
0.74219			-0.92381			581427.00000
0.74219			-0.91931			581528.00000
0.74219			-0.91074			581627.00000
0.74219			-0.90719			581727.00000
0.74219			-0.90415			581828.00000
0.74219			-0.90259			581927.00000
-0.74219			0.88551			582952.00000
-0.74219			1.12683			583053.00000
-0.74219			1.18686			583154.00000
-0.74219			1.17823			583253.00000
-0.74219			1.16803			583353.00000
-0.74219			1.16290			583454.00000
-0.74219			1.15943			583553.00000
-0.74219			1.15219			583654.00000
-0.74219			1.15048			583753.00000
-0.74219			1.14664			583853.00000
-0.00732			0.54287			584558.00000
-0.00732			0.22391			584658.00000
-0.00732			0.12108			584759.00000
-0.00732			0.11445			584860.00000
-0.00732			0.11824			584959.00000
-0.00732			0.12337			585059.00000
-0.00732			0.12731			585160.00000
-0.00732			0.12849			585259.00000
-0.00732			0.12829			585360.00000
-0.00732			0.12895			585459.00000
0.48828			-0.26557			585857.00000
0.48828			-0.50863			585959.00000
0.48828			-0.57126			586058.00000
0.48828			-0.56742			586158.00000
0.48828			-0.56174			586259.00000
0.48828			-0.55724			586358.00000
0.48828			-0.55181			586458.00000
0.48828			-0.55007			586559.00000
0.48828			-0.54809			586658.00000
0.48828			-0.54623			586758.00000
-0.49316			0.59078			587692.00000
-0.49316			0.79983			587794.00000
-0.49316			0.84386			587893.00000
-0.49316			0.83665			587993.00000
-0.49316			0.83099			588094.00000
-0.49316			0.82788			588193.00000
-0.49316			0.82614			588293.00000
-0.49316			0.82330			588394.00000
-0.49316			0.81735			588493.00000
-0.49316			0.81531			588593.00000
-0.00732			0.61569			589250.00000
-0.00732			0.31608			589350.00000
-0.00732			0.15697			589450.00000
-0.00732			0.13654			589551.00000
-0.00732			0.13860			589650.00000
-0.00732			0.13935			589750.00000
-0.00732			0.14013			589851.00000
-0.00732			0.14114			589950.00000
-0.00732			0.14348			590050.00000
-0.00732			0.14380			590151.00000
0.24414			0.10881			590482.00000
0.24414			-0.04843			590583.00000
0.24414			-0.22096			590683.00000
0.24414			-0.21794			590784.00000
0.24414			-0.21507			590883.00000
0.24414			-0.21309			590983.00000
0.24414			-0.21121			591084.00000
0.24414			-0.20899			591183.00000
0.24414			-0.20789			591283.00000
0.24414			-0.20711			591384.00000
-0.24414			0.12068			592176.00000
-0.24414			0.44034			592277.00000
-0.24414			0.48773			592376.00000
-0.24414			0.48219			592476.00000
-0.24414			0.47943			592577.00000
-0.24414			0.47772			592676.00000
-0.24414			0.47621			592776.00000
-0.24414			0.47475			592877.00000
-0.24414			0.47139			592976.00000
-0.24414			0.47106			593076.00000
-0.00732			0.44872			593660.00000
-0.00732			0.34071			593760.00000
-0.00732			0.15174			593861.00000
-0.00732			0.15298			593960.00000
-0.00732			0.15398			594060.00000
-0.00732			0.15449			594161.00000
-0.00732			0.15655			594260.00000
-0.00732			0.15637			594360.00000
-0.00732			0.15732			594461.00000
-0.00732			0.15574			594560.00000
